1
1
  87  0.0   20    6
   1    0
   2    0
   5    0
   6    0
  40    0
  39    0
   height (km)    press (atm)       temp (K)    VMR gas  0    VMR gas  1    VMR gas  2    VMR gas  3    VMR gas  4    VMR gas  5
         0.000    1.97385E+01       2294.230   1.00000E-04   1.00000E-04   1.00000E-04   1.00000E-04   1.35946E-01   8.63654E-01
        73.935    1.17204E+01       2275.697   1.00000E-04   1.00000E-04   1.00000E-04   1.00000E-04   1.35946E-01   8.63654E-01
       147.870    6.95943E+00       2221.477   1.00000E-04   1.00000E-04   1.00000E-04   1.00000E-04   1.35946E-01   8.63654E-01
       221.805    4.13241E+00       2124.541   1.00000E-04   1.00000E-04   1.00000E-04   1.00000E-04   1.35946E-01   8.63654E-01
       295.739    2.45377E+00       1996.039   1.00000E-04   1.00000E-04   1.00000E-04   1.00000E-04   1.35946E-01   8.63654E-01
       369.674    1.45701E+00       1854.891   1.00000E-04   1.00000E-04   1.00000E-04   1.00000E-04   1.35946E-01   8.63654E-01
       443.609    8.65154E-01       1718.539   1.00000E-04   1.00000E-04   1.00000E-04   1.00000E-04   1.35946E-01   8.63654E-01
       517.544    5.13716E-01       1599.149   1.00000E-04   1.00000E-04   1.00000E-04   1.00000E-04   1.35946E-01   8.63654E-01
       591.479    3.05038E-01       1502.971   1.00000E-04   1.00000E-04   1.00000E-04   1.00000E-04   1.35946E-01   8.63654E-01
       665.414    1.81127E-01       1431.022   1.00000E-04   1.00000E-04   1.00000E-04   1.00000E-04   1.35946E-01   8.63654E-01
       739.349    1.07551E-01       1380.559   1.00000E-04   1.00000E-04   1.00000E-04   1.00000E-04   1.35946E-01   8.63654E-01
       813.283    6.38621E-02       1346.978   1.00000E-04   1.00000E-04   1.00000E-04   1.00000E-04   1.35946E-01   8.63654E-01
       887.218    3.79204E-02       1325.499   1.00000E-04   1.00000E-04   1.00000E-04   1.00000E-04   1.35946E-01   8.63654E-01
       961.153    2.25166E-02       1312.138   1.00000E-04   1.00000E-04   1.00000E-04   1.00000E-04   1.35946E-01   8.63654E-01
      1035.088    1.33701E-02       1303.979   1.00000E-04   1.00000E-04   1.00000E-04   1.00000E-04   1.35946E-01   8.63654E-01
      1109.023    7.93896E-03       1299.053   1.00000E-04   1.00000E-04   1.00000E-04   1.00000E-04   1.35946E-01   8.63654E-01
      1182.958    4.71404E-03       1296.103   1.00000E-04   1.00000E-04   1.00000E-04   1.00000E-04   1.35946E-01   8.63654E-01
      1256.893    2.79913E-03       1294.342   1.00000E-04   1.00000E-04   1.00000E-04   1.00000E-04   1.35946E-01   8.63654E-01
      1330.828    1.66209E-03       1293.295   1.00000E-04   1.00000E-04   1.00000E-04   1.00000E-04   1.35946E-01   8.63654E-01
      1404.762    9.86923E-04       1292.673   1.00000E-04   1.00000E-04   1.00000E-04   1.00000E-04   1.35946E-01   8.63654E-01