           1
  87   0.00 100  6
   1    0
   2    0
   5    0
   6    0
  40    0
  39    0
  height (km)  press (atm)   temp (K)    VMR gas  1   VMR gas  2   VMR gas  3   VMR gas  4   VMR gas  5   VMR gas  6   VMR gas
         0.000  0.19739E+02    2294.2300  0.10000E-03  0.10000E-03  0.10000E-03  0.10000E-03  0.13595E+00  0.86365E+00
        17.523  0.17860E+02    2289.8870  0.10000E-03  0.10000E-03  0.10000E-03  0.10000E-03  0.13595E+00  0.86365E+00
        35.022  0.16159E+02    2285.9570  0.10000E-03  0.10000E-03  0.10000E-03  0.10000E-03  0.13595E+00  0.86365E+00
        52.501  0.14621E+02    2282.4021  0.10000E-03  0.10000E-03  0.10000E-03  0.10000E-03  0.13595E+00  0.86365E+00
        69.963  0.13229E+02    2279.1841  0.10000E-03  0.10000E-03  0.10000E-03  0.10000E-03  0.13595E+00  0.86365E+00
        87.408  0.11970E+02    2276.2739  0.10000E-03  0.10000E-03  0.10000E-03  0.10000E-03  0.13595E+00  0.86365E+00
       104.810  0.10830E+02    2265.5610  0.10000E-03  0.10000E-03  0.10000E-03  0.10000E-03  0.13595E+00  0.86365E+00
       122.134  0.97994E+01    2253.8201  0.10000E-03  0.10000E-03  0.10000E-03  0.10000E-03  0.13595E+00  0.86365E+00
       139.380  0.88666E+01    2243.1960  0.10000E-03  0.10000E-03  0.10000E-03  0.10000E-03  0.13595E+00  0.86365E+00
       156.557  0.80225E+01    2233.5840  0.10000E-03  0.10000E-03  0.10000E-03  0.10000E-03  0.13595E+00  0.86365E+00
       173.671  0.72588E+01    2224.8870  0.10000E-03  0.10000E-03  0.10000E-03  0.10000E-03  0.13595E+00  0.86365E+00
       190.696  0.65678E+01    2208.0491  0.10000E-03  0.10000E-03  0.10000E-03  0.10000E-03  0.13595E+00  0.86365E+00
       207.581  0.59426E+01    2186.6111  0.10000E-03  0.10000E-03  0.10000E-03  0.10000E-03  0.13595E+00  0.86365E+00
       224.316  0.53769E+01    2167.2129  0.10000E-03  0.10000E-03  0.10000E-03  0.10000E-03  0.13595E+00  0.86365E+00
       240.917  0.48650E+01    2149.6621  0.10000E-03  0.10000E-03  0.10000E-03  0.10000E-03  0.13595E+00  0.86365E+00
       257.397  0.44019E+01    2133.7820  0.10000E-03  0.10000E-03  0.10000E-03  0.10000E-03  0.13595E+00  0.86365E+00
       273.743  0.39829E+01    2113.0940  0.10000E-03  0.10000E-03  0.10000E-03  0.10000E-03  0.13595E+00  0.86365E+00
       289.905  0.36037E+01    2084.0701  0.10000E-03  0.10000E-03  0.10000E-03  0.10000E-03  0.13595E+00  0.86365E+00
       305.861  0.32607E+01    2057.8091  0.10000E-03  0.10000E-03  0.10000E-03  0.10000E-03  0.13595E+00  0.86365E+00
       321.631  0.29503E+01    2034.0470  0.10000E-03  0.10000E-03  0.10000E-03  0.10000E-03  0.13595E+00  0.86365E+00
       337.233  0.26694E+01    2012.5480  0.10000E-03  0.10000E-03  0.10000E-03  0.10000E-03  0.13595E+00  0.86365E+00
       352.674  0.24153E+01    1990.5940  0.10000E-03  0.10000E-03  0.10000E-03  0.10000E-03  0.13595E+00  0.86365E+00
       367.911  0.21854E+01    1958.0350  0.10000E-03  0.10000E-03  0.10000E-03  0.10000E-03  0.13595E+00  0.86365E+00
       382.915  0.19773E+01    1928.5750  0.10000E-03  0.10000E-03  0.10000E-03  0.10000E-03  0.13595E+00  0.86365E+00
       397.708  0.17891E+01    1901.9200  0.10000E-03  0.10000E-03  0.10000E-03  0.10000E-03  0.13595E+00  0.86365E+00
       412.311  0.16188E+01    1877.8020  0.10000E-03  0.10000E-03  0.10000E-03  0.10000E-03  0.13595E+00  0.86365E+00
       426.742  0.14647E+01    1855.9810  0.10000E-03  0.10000E-03  0.10000E-03  0.10000E-03  0.13595E+00  0.86365E+00
       440.973  0.13253E+01    1824.5410  0.10000E-03  0.10000E-03  0.10000E-03  0.10000E-03  0.13595E+00  0.86365E+00
       454.975  0.11991E+01    1795.4771  0.10000E-03  0.10000E-03  0.10000E-03  0.10000E-03  0.13595E+00  0.86365E+00
       468.768  0.10850E+01    1769.1790  0.10000E-03  0.10000E-03  0.10000E-03  0.10000E-03  0.13595E+00  0.86365E+00
       482.372  0.98168E+00    1745.3850  0.10000E-03  0.10000E-03  0.10000E-03  0.10000E-03  0.13595E+00  0.86365E+00
       495.805  0.88823E+00    1723.8550  0.10000E-03  0.10000E-03  0.10000E-03  0.10000E-03  0.13595E+00  0.86365E+00
       509.059  0.80368E+00    1697.6541  0.10000E-03  0.10000E-03  0.10000E-03  0.10000E-03  0.13595E+00  0.86365E+00
       522.115  0.72717E+00    1671.6639  0.10000E-03  0.10000E-03  0.10000E-03  0.10000E-03  0.13595E+00  0.86365E+00
       534.983  0.65795E+00    1648.1470  0.10000E-03  0.10000E-03  0.10000E-03  0.10000E-03  0.13595E+00  0.86365E+00
       547.682  0.59532E+00    1626.8700  0.10000E-03  0.10000E-03  0.10000E-03  0.10000E-03  0.13595E+00  0.86365E+00
       560.229  0.53865E+00    1607.6180  0.10000E-03  0.10000E-03  0.10000E-03  0.10000E-03  0.13595E+00  0.86365E+00
       572.624  0.48737E+00    1587.0060  0.10000E-03  0.10000E-03  0.10000E-03  0.10000E-03  0.13595E+00  0.86365E+00
       584.861  0.44097E+00    1565.6230  0.10000E-03  0.10000E-03  0.10000E-03  0.10000E-03  0.13595E+00  0.86365E+00
       596.944  0.39900E+00    1546.2760  0.10000E-03  0.10000E-03  0.10000E-03  0.10000E-03  0.13595E+00  0.86365E+00
       608.888  0.36101E+00    1528.7700  0.10000E-03  0.10000E-03  0.10000E-03  0.10000E-03  0.13595E+00  0.86365E+00
       620.706  0.32665E+00    1512.9310  0.10000E-03  0.10000E-03  0.10000E-03  0.10000E-03  0.13595E+00  0.86365E+00
       632.406  0.29555E+00    1497.4630  0.10000E-03  0.10000E-03  0.10000E-03  0.10000E-03  0.13595E+00  0.86365E+00
       643.985  0.26742E+00    1481.1270  0.10000E-03  0.10000E-03  0.10000E-03  0.10000E-03  0.13595E+00  0.86365E+00
       655.448  0.24196E+00    1466.3450  0.10000E-03  0.10000E-03  0.10000E-03  0.10000E-03  0.13595E+00  0.86365E+00
       666.804  0.21893E+00    1452.9709  0.10000E-03  0.10000E-03  0.10000E-03  0.10000E-03  0.13595E+00  0.86365E+00
       678.065  0.19809E+00    1440.8690  0.10000E-03  0.10000E-03  0.10000E-03  0.10000E-03  0.13595E+00  0.86365E+00
       689.238  0.17923E+00    1429.7209  0.10000E-03  0.10000E-03  0.10000E-03  0.10000E-03  0.13595E+00  0.86365E+00
       700.326  0.16217E+00    1418.0190  0.10000E-03  0.10000E-03  0.10000E-03  0.10000E-03  0.13595E+00  0.86365E+00
       711.330  0.14673E+00    1407.4310  0.10000E-03  0.10000E-03  0.10000E-03  0.10000E-03  0.13595E+00  0.86365E+00
       722.260  0.13276E+00    1397.8510  0.10000E-03  0.10000E-03  0.10000E-03  0.10000E-03  0.13595E+00  0.86365E+00
       733.121  0.12012E+00    1389.1830  0.10000E-03  0.10000E-03  0.10000E-03  0.10000E-03  0.13595E+00  0.86365E+00
       743.921  0.10869E+00    1381.3400  0.10000E-03  0.10000E-03  0.10000E-03  0.10000E-03  0.13595E+00  0.86365E+00
       754.663  0.98343E-01    1373.4821  0.10000E-03  0.10000E-03  0.10000E-03  0.10000E-03  0.13595E+00  0.86365E+00
       765.349  0.88981E-01    1366.2860  0.10000E-03  0.10000E-03  0.10000E-03  0.10000E-03  0.13595E+00  0.86365E+00
       775.984  0.80510E-01    1359.7750  0.10000E-03  0.10000E-03  0.10000E-03  0.10000E-03  0.13595E+00  0.86365E+00
       786.575  0.72846E-01    1353.8840  0.10000E-03  0.10000E-03  0.10000E-03  0.10000E-03  0.13595E+00  0.86365E+00
       797.124  0.65912E-01    1348.5540  0.10000E-03  0.10000E-03  0.10000E-03  0.10000E-03  0.13595E+00  0.86365E+00
       807.636  0.59637E-01    1343.4800  0.10000E-03  0.10000E-03  0.10000E-03  0.10000E-03  0.13595E+00  0.86365E+00
       818.113  0.53960E-01    1338.7800  0.10000E-03  0.10000E-03  0.10000E-03  0.10000E-03  0.13595E+00  0.86365E+00
       828.557  0.48823E-01    1334.5270  0.10000E-03  0.10000E-03  0.10000E-03  0.10000E-03  0.13595E+00  0.86365E+00
       838.973  0.44176E-01    1330.6790  0.10000E-03  0.10000E-03  0.10000E-03  0.10000E-03  0.13595E+00  0.86365E+00
       849.363  0.39970E-01    1327.1970  0.10000E-03  0.10000E-03  0.10000E-03  0.10000E-03  0.13595E+00  0.86365E+00
       859.730  0.36165E-01    1323.9771  0.10000E-03  0.10000E-03  0.10000E-03  0.10000E-03  0.13595E+00  0.86365E+00
       870.076  0.32723E-01    1320.9910  0.10000E-03  0.10000E-03  0.10000E-03  0.10000E-03  0.13595E+00  0.86365E+00
       880.401  0.29608E-01    1318.2889  0.10000E-03  0.10000E-03  0.10000E-03  0.10000E-03  0.13595E+00  0.86365E+00
       890.710  0.26789E-01    1315.8440  0.10000E-03  0.10000E-03  0.10000E-03  0.10000E-03  0.13595E+00  0.86365E+00
       901.003  0.24239E-01    1313.6320  0.10000E-03  0.10000E-03  0.10000E-03  0.10000E-03  0.13595E+00  0.86365E+00
       911.283  0.21932E-01    1311.6160  0.10000E-03  0.10000E-03  0.10000E-03  0.10000E-03  0.13595E+00  0.86365E+00
       921.550  0.19844E-01    1309.7540  0.10000E-03  0.10000E-03  0.10000E-03  0.10000E-03  0.13595E+00  0.86365E+00
       931.806  0.17955E-01    1308.0690  0.10000E-03  0.10000E-03  0.10000E-03  0.10000E-03  0.13595E+00  0.86365E+00
       942.052  0.16246E-01    1306.5439  0.10000E-03  0.10000E-03  0.10000E-03  0.10000E-03  0.13595E+00  0.86365E+00
       952.290  0.14699E-01    1305.1639  0.10000E-03  0.10000E-03  0.10000E-03  0.10000E-03  0.13595E+00  0.86365E+00
       962.520  0.13300E-01    1303.9150  0.10000E-03  0.10000E-03  0.10000E-03  0.10000E-03  0.13595E+00  0.86365E+00
       972.744  0.12034E-01    1302.7670  0.10000E-03  0.10000E-03  0.10000E-03  0.10000E-03  0.13595E+00  0.86365E+00
       982.962  0.10888E-01    1301.7280  0.10000E-03  0.10000E-03  0.10000E-03  0.10000E-03  0.13595E+00  0.86365E+00
       993.174  0.98517E-02    1300.7880  0.10000E-03  0.10000E-03  0.10000E-03  0.10000E-03  0.13595E+00  0.86365E+00
      1003.383  0.89139E-02    1299.9380  0.10000E-03  0.10000E-03  0.10000E-03  0.10000E-03  0.13595E+00  0.86365E+00
      1013.588  0.80654E-02    1299.1680  0.10000E-03  0.10000E-03  0.10000E-03  0.10000E-03  0.13595E+00  0.86365E+00
      1023.790  0.72976E-02    1298.4670  0.10000E-03  0.10000E-03  0.10000E-03  0.10000E-03  0.13595E+00  0.86365E+00
      1033.989  0.66029E-02    1297.8311  0.10000E-03  0.10000E-03  0.10000E-03  0.10000E-03  0.13595E+00  0.86365E+00
      1044.187  0.59743E-02    1297.2560  0.10000E-03  0.10000E-03  0.10000E-03  0.10000E-03  0.13595E+00  0.86365E+00
      1054.383  0.54056E-02    1296.7350  0.10000E-03  0.10000E-03  0.10000E-03  0.10000E-03  0.13595E+00  0.86365E+00
      1064.577  0.48910E-02    1296.2650  0.10000E-03  0.10000E-03  0.10000E-03  0.10000E-03  0.13595E+00  0.86365E+00
      1074.771  0.44254E-02    1295.8370  0.10000E-03  0.10000E-03  0.10000E-03  0.10000E-03  0.13595E+00  0.86365E+00
      1084.965  0.40042E-02    1295.4500  0.10000E-03  0.10000E-03  0.10000E-03  0.10000E-03  0.13595E+00  0.86365E+00
      1095.159  0.36230E-02    1295.1000  0.10000E-03  0.10000E-03  0.10000E-03  0.10000E-03  0.13595E+00  0.86365E+00
      1105.352  0.32781E-02    1294.7830  0.10000E-03  0.10000E-03  0.10000E-03  0.10000E-03  0.13595E+00  0.86365E+00
      1115.546  0.29660E-02    1294.4960  0.10000E-03  0.10000E-03  0.10000E-03  0.10000E-03  0.13595E+00  0.86365E+00
      1125.741  0.26837E-02    1294.2360  0.10000E-03  0.10000E-03  0.10000E-03  0.10000E-03  0.13595E+00  0.86365E+00
      1135.936  0.24282E-02    1294.0010  0.10000E-03  0.10000E-03  0.10000E-03  0.10000E-03  0.13595E+00  0.86365E+00
      1146.132  0.21971E-02    1293.7880  0.10000E-03  0.10000E-03  0.10000E-03  0.10000E-03  0.13595E+00  0.86365E+00
      1156.330  0.19879E-02    1293.5950  0.10000E-03  0.10000E-03  0.10000E-03  0.10000E-03  0.13595E+00  0.86365E+00
      1166.529  0.17987E-02    1293.4210  0.10000E-03  0.10000E-03  0.10000E-03  0.10000E-03  0.13595E+00  0.86365E+00
      1176.729  0.16274E-02    1293.2629  0.10000E-03  0.10000E-03  0.10000E-03  0.10000E-03  0.13595E+00  0.86365E+00
      1186.932  0.14725E-02    1293.1200  0.10000E-03  0.10000E-03  0.10000E-03  0.10000E-03  0.13595E+00  0.86365E+00
      1197.135  0.13323E-02    1292.9910  0.10000E-03  0.10000E-03  0.10000E-03  0.10000E-03  0.13595E+00  0.86365E+00
      1207.340  0.12055E-02    1292.8740  0.10000E-03  0.10000E-03  0.10000E-03  0.10000E-03  0.13595E+00  0.86365E+00
      1217.548  0.10908E-02    1292.7690  0.10000E-03  0.10000E-03  0.10000E-03  0.10000E-03  0.13595E+00  0.86365E+00
      1227.757  0.98692E-03    1292.6730  0.10000E-03  0.10000E-03  0.10000E-03  0.10000E-03  0.13595E+00  0.86365E+00
