           1
  87   0.00  40  6
   1    0
   2    0
   5    0
   6    0
  40    0
  39    0
  height (km)  press (atm)   temp (K)    VMR gas  1   VMR gas  2   VMR gas  3   VMR gas  4   VMR gas  5   VMR gas  6   VMR gas
         0.000  0.19739E+02    2294.2300  0.10000E-09  0.10000E-09  0.10000E-09  0.10000E-02  0.13586E+00  0.86314E+00
        44.361  0.15312E+02    2283.9980  0.10000E-09  0.10000E-09  0.10000E-09  0.10000E-02  0.13586E+00  0.86314E+00
        88.599  0.11878E+02    2276.0620  0.10000E-09  0.10000E-09  0.10000E-09  0.10000E-02  0.13586E+00  0.86314E+00
       132.531  0.92143E+01    2247.1570  0.10000E-09  0.10000E-09  0.10000E-09  0.10000E-02  0.13586E+00  0.86314E+00
       176.006  0.71480E+01    2223.6240  0.10000E-09  0.10000E-09  0.10000E-09  0.10000E-02  0.13586E+00  0.86314E+00
       218.808  0.55450E+01    2172.9761  0.10000E-09  0.10000E-09  0.10000E-09  0.10000E-02  0.13586E+00  0.86314E+00
       260.750  0.43015E+01    2130.3369  0.10000E-09  0.10000E-09  0.10000E-09  0.10000E-02  0.13586E+00  0.86314E+00
       301.672  0.33368E+01    2063.6379  0.10000E-09  0.10000E-09  0.10000E-09  0.10000E-02  0.13586E+00  0.86314E+00
       341.427  0.25885E+01    2006.3540  0.10000E-09  0.10000E-09  0.10000E-09  0.10000E-02  0.13586E+00  0.86314E+00
       379.947  0.20080E+01    1932.9180  0.10000E-09  0.10000E-09  0.10000E-09  0.10000E-02  0.13586E+00  0.86314E+00
       417.162  0.15577E+01    1869.1500  0.10000E-09  0.10000E-09  0.10000E-09  0.10000E-02  0.13586E+00  0.86314E+00
       453.088  0.12084E+01    1797.6110  0.10000E-09  0.10000E-09  0.10000E-09  0.10000E-02  0.13586E+00  0.86314E+00
       487.734  0.93739E+00    1735.1801  0.10000E-09  0.10000E-09  0.10000E-09  0.10000E-02  0.13586E+00  0.86314E+00
       521.176  0.72717E+00    1671.6639  0.10000E-09  0.10000E-09  0.10000E-09  0.10000E-02  0.13586E+00  0.86314E+00
       553.479  0.56410E+00    1616.2640  0.10000E-09  0.10000E-09  0.10000E-09  0.10000E-02  0.13586E+00  0.86314E+00
       584.751  0.43759E+00    1564.0649  0.10000E-09  0.10000E-09  0.10000E-09  0.10000E-02  0.13586E+00  0.86314E+00
       615.090  0.33946E+00    1518.8361  0.10000E-09  0.10000E-09  0.10000E-09  0.10000E-02  0.13586E+00  0.86314E+00
       644.614  0.26333E+00    1478.7550  0.10000E-09  0.10000E-09  0.10000E-09  0.10000E-02  0.13586E+00  0.86314E+00
       673.428  0.20428E+00    1444.4650  0.10000E-09  0.10000E-09  0.10000E-09  0.10000E-02  0.13586E+00  0.86314E+00
       701.639  0.15847E+00    1415.4810  0.10000E-09  0.10000E-09  0.10000E-09  0.10000E-02  0.13586E+00  0.86314E+00
       729.345  0.12293E+00    1391.1071  0.10000E-09  0.10000E-09  0.10000E-09  0.10000E-02  0.13586E+00  0.86314E+00
       756.634  0.95362E-01    1371.1899  0.10000E-09  0.10000E-09  0.10000E-09  0.10000E-02  0.13586E+00  0.86314E+00
       783.583  0.73976E-01    1354.7520  0.10000E-09  0.10000E-09  0.10000E-09  0.10000E-02  0.13586E+00  0.86314E+00
       810.258  0.57386E-01    1341.6160  0.10000E-09  0.10000E-09  0.10000E-09  0.10000E-02  0.13586E+00  0.86314E+00
       836.718  0.44517E-01    1330.9611  0.10000E-09  0.10000E-09  0.10000E-09  0.10000E-02  0.13586E+00  0.86314E+00
       863.007  0.34534E-01    1322.5620  0.10000E-09  0.10000E-09  0.10000E-09  0.10000E-02  0.13586E+00  0.86314E+00
       889.164  0.26789E-01    1315.8440  0.10000E-09  0.10000E-09  0.10000E-09  0.10000E-02  0.13586E+00  0.86314E+00
       915.221  0.20782E-01    1310.5900  0.10000E-09  0.10000E-09  0.10000E-09  0.10000E-02  0.13586E+00  0.86314E+00
       941.203  0.16121E-01    1306.4330  0.10000E-09  0.10000E-09  0.10000E-09  0.10000E-02  0.13586E+00  0.86314E+00
       967.129  0.12506E-01    1303.1949  0.10000E-09  0.10000E-09  0.10000E-09  0.10000E-02  0.13586E+00  0.86314E+00
       993.016  0.97013E-02    1300.6520  0.10000E-09  0.10000E-09  0.10000E-09  0.10000E-02  0.13586E+00  0.86314E+00
      1018.876  0.75257E-02    1298.6750  0.10000E-09  0.10000E-09  0.10000E-09  0.10000E-02  0.13586E+00  0.86314E+00
      1044.718  0.58380E-02    1297.1310  0.10000E-09  0.10000E-09  0.10000E-09  0.10000E-02  0.13586E+00  0.86314E+00
      1070.551  0.45288E-02    1295.9320  0.10000E-09  0.10000E-09  0.10000E-09  0.10000E-02  0.13586E+00  0.86314E+00
      1096.380  0.35132E-02    1294.9990  0.10000E-09  0.10000E-09  0.10000E-09  0.10000E-02  0.13586E+00  0.86314E+00
      1122.211  0.27253E-02    1294.2740  0.10000E-09  0.10000E-09  0.10000E-09  0.10000E-02  0.13586E+00  0.86314E+00
      1148.046  0.21141E-02    1293.7111  0.10000E-09  0.10000E-09  0.10000E-09  0.10000E-02  0.13586E+00  0.86314E+00
      1173.889  0.16400E-02    1293.2750  0.10000E-09  0.10000E-09  0.10000E-09  0.10000E-02  0.13586E+00  0.86314E+00
      1199.743  0.12722E-02    1292.9360  0.10000E-09  0.10000E-09  0.10000E-09  0.10000E-02  0.13586E+00  0.86314E+00
      1225.608  0.98692E-03    1292.6730  0.10000E-09  0.10000E-09  0.10000E-09  0.10000E-02  0.13586E+00  0.86314E+00
