           1
  87   0.00  20  6
   1    0
   2    0
   5    0
   6    0
  40    0
  39    0
  height (km)  press (atm)   temp (K)    VMR gas  1   VMR gas  2   VMR gas  3   VMR gas  4   VMR gas  5   VMR gas  6   VMR gas
         0.000  0.19739E+02    2294.2300  0.10000E-03  0.10000E-03  0.10000E-03  0.10000E-03  0.14994E+00  0.84966E+00
        90.019  0.11720E+02    2275.6970  0.10000E-03  0.10000E-03  0.10000E-03  0.10000E-03  0.14994E+00  0.84966E+00
       178.817  0.69594E+01    2221.4771  0.10000E-03  0.10000E-03  0.10000E-03  0.10000E-03  0.14994E+00  0.84966E+00
       264.832  0.41324E+01    2124.5410  0.10000E-03  0.10000E-03  0.10000E-03  0.10000E-03  0.14994E+00  0.84966E+00
       346.568  0.24538E+01    1996.0389  0.10000E-03  0.10000E-03  0.10000E-03  0.10000E-03  0.14994E+00  0.84966E+00
       423.119  0.14570E+01    1854.8910  0.10000E-03  0.10000E-03  0.10000E-03  0.10000E-03  0.14994E+00  0.84966E+00
       494.294  0.86515E+00    1718.5389  0.10000E-03  0.10000E-03  0.10000E-03  0.10000E-03  0.14994E+00  0.84966E+00
       560.498  0.51372E+00    1599.1490  0.10000E-03  0.10000E-03  0.10000E-03  0.10000E-03  0.14994E+00  0.84966E+00
       622.506  0.30504E+00    1502.9709  0.10000E-03  0.10000E-03  0.10000E-03  0.10000E-03  0.14994E+00  0.84966E+00
       681.250  0.18113E+00    1431.0220  0.10000E-03  0.10000E-03  0.10000E-03  0.10000E-03  0.14994E+00  0.84966E+00
       737.629  0.10755E+00    1380.5590  0.10000E-03  0.10000E-03  0.10000E-03  0.10000E-03  0.14994E+00  0.84966E+00
       792.405  0.63862E-01    1346.9780  0.10000E-03  0.10000E-03  0.10000E-03  0.10000E-03  0.14994E+00  0.84966E+00
       846.153  0.37920E-01    1325.4990  0.10000E-03  0.10000E-03  0.10000E-03  0.10000E-03  0.14994E+00  0.84966E+00
       899.276  0.22517E-01    1312.1379  0.10000E-03  0.10000E-03  0.10000E-03  0.10000E-03  0.14994E+00  0.84966E+00
       952.040  0.13370E-01    1303.9790  0.10000E-03  0.10000E-03  0.10000E-03  0.10000E-03  0.14994E+00  0.84966E+00
      1004.615  0.79390E-02    1299.0530  0.10000E-03  0.10000E-03  0.10000E-03  0.10000E-03  0.14994E+00  0.84966E+00
      1057.103  0.47140E-02    1296.1030  0.10000E-03  0.10000E-03  0.10000E-03  0.10000E-03  0.14994E+00  0.84966E+00
      1109.570  0.27991E-02    1294.3420  0.10000E-03  0.10000E-03  0.10000E-03  0.10000E-03  0.14994E+00  0.84966E+00
      1162.053  0.16621E-02    1293.2950  0.10000E-03  0.10000E-03  0.10000E-03  0.10000E-03  0.14994E+00  0.84966E+00
      1214.575  0.98692E-03    1292.6730  0.10000E-03  0.10000E-03  0.10000E-03  0.10000E-03  0.14994E+00  0.84966E+00
