1
1
  87  0.0   53    6
   1    0
   2    0
   5    0
   6    0
  40    0
  39    0
   height (km)    press (atm)       temp (K)    VMR gas  0    VMR gas  1    VMR gas  2    VMR gas  3    VMR gas  4    VMR gas  5
         0.000    1.68409E+02       2496.000   5.56929E-04   3.90301E-04   4.21599E-08   4.60362E-05   1.62465E-01   8.36541E-01
        19.231    1.18964E+02       2260.200   5.67022E-04   3.75924E-04   4.66552E-08   6.40914E-05   1.62373E-01   8.36620E-01
        38.462    8.40385E+01       2097.400   5.79963E-04   3.68978E-04   5.20475E-08   7.57705E-05   1.62343E-01   8.36632E-01
        57.692    5.93654E+01       2159.000   5.37279E-04   4.13047E-04   5.16535E-08   3.15573E-05   1.62349E-01   8.36669E-01
        76.923    4.19363E+01       2352.700   5.01418E-04   4.49987E-04   4.69570E-08   6.84542E-06   1.62446E-01   8.36595E-01
        96.154    2.96245E+01       2468.800   4.89553E-04   4.61105E-04   4.44017E-08   2.12080E-06   1.62582E-01   8.36465E-01
       115.385    2.09267E+01       2477.000   4.88315E-04   4.61636E-04   4.42283E-08   1.02447E-06   1.62674E-01   8.36375E-01
       134.615    1.47831E+01       2429.600   4.87753E-04   4.62168E-04   4.52272E-08   6.26758E-07   1.62656E-01   8.36393E-01
       153.846    1.04426E+01       2328.400   4.87753E-04   4.63127E-04   4.76760E-08   4.99574E-07   1.62551E-01   8.36497E-01
       173.077    7.37696E+00       2195.600   4.88427E-04   4.63340E-04   5.15941E-08   4.93628E-07   1.62448E-01   8.36600E-01
       192.308    5.21115E+00       2072.400   4.89103E-04   4.63234E-04   5.61694E-08   5.04080E-07   1.62380E-01   8.36667E-01
       211.538    3.68122E+00       1975.300   4.89328E-04   4.63554E-04   6.04923E-08   4.66552E-07   1.62341E-01   8.36705E-01
       230.769    2.60044E+00       1903.200   4.88990E-04   4.64088E-04   6.43428E-08   3.86189E-07   1.62322E-01   8.36724E-01
       250.000    1.83696E+00       1852.600   4.89215E-04   4.64088E-04   6.75616E-08   2.85233E-07   1.62318E-01   8.36728E-01
       269.231    1.29761E+00       1819.100   4.89103E-04   4.64301E-04   6.98072E-08   1.85055E-07   1.62314E-01   8.36732E-01
       288.462    9.16674E-01       1801.000   4.88877E-04   4.64515E-04   7.10395E-08   1.06414E-07   1.62315E-01   8.36731E-01
       307.692    6.47550E-01       1787.900   4.88203E-04   4.64515E-04   7.19781E-08   5.96074E-08   1.62317E-01   8.36730E-01
       326.923    4.57439E-01       1768.500   4.87865E-04   4.64515E-04   7.35022E-08   3.52696E-08   1.62320E-01   8.36728E-01
       346.154    3.23138E-01       1740.300   4.88540E-04   4.64515E-04   7.59451E-08   2.25061E-08   1.62318E-01   8.36729E-01
       365.385    2.28265E-01       1705.700   4.88990E-04   4.64622E-04   7.89951E-08   1.52090E-08   1.62311E-01   8.36735E-01
       384.615    1.61253E-01       1666.200   4.75664E-04   4.64622E-04   8.07607E-08   1.14604E-08   1.62304E-01   8.36756E-01
       403.846    1.13911E-01       1622.100   4.75664E-04   4.64622E-04   8.54673E-08   8.85523E-09   1.62298E-01   8.36761E-01
       423.077    8.04658E-02       1575.200   4.56037E-04   4.64622E-04   8.74581E-08   7.59101E-09   1.62294E-01   8.36785E-01
       442.308    5.68418E-02       1528.900   4.16869E-04   4.64622E-04   8.56643E-08   6.98393E-09   1.62290E-01   8.36829E-01
       461.538    4.01540E-02       1489.900   3.95367E-04   4.64729E-04   8.63574E-08   5.80363E-09   1.62285E-01   8.36855E-01
       480.769    2.83652E-02       1459.800   3.87793E-04   4.64729E-04   8.92894E-08   4.35211E-09   1.62286E-01   8.36861E-01
       500.000    2.00375E-02       1432.200   3.80189E-04   4.64729E-04   9.18756E-08   3.16447E-09   1.62285E-01   8.36870E-01
       519.231    1.41545E-02       1402.800   3.65679E-04   4.64729E-04   9.30465E-08   2.39994E-09   1.62284E-01   8.36885E-01
       538.462    9.99852E-03       1372.800   3.62994E-04   4.64729E-04   9.82200E-08   1.87758E-09   1.62287E-01   8.36885E-01
       557.692    7.06331E-03       1344.800   3.62827E-04   4.64729E-04   1.04064E-07   1.42495E-09   1.62286E-01   8.36886E-01
       576.923    4.98959E-03       1321.100   3.59998E-04   4.64729E-04   1.08493E-07   1.02000E-09   1.62288E-01   8.36887E-01
       596.154    3.52470E-03       1302.100   3.55631E-04   4.64729E-04   1.11481E-07   6.83912E-10   1.62290E-01   8.36889E-01
       615.385    2.48991E-03       1285.400   3.55222E-04   4.64729E-04   1.16011E-07   4.55303E-10   1.62287E-01   8.36893E-01
       634.615    1.75889E-03       1268.700   3.55468E-04   4.64729E-04   1.21032E-07   3.03529E-10   1.62287E-01   8.36893E-01
       653.846    1.24244E-03       1251.800   3.55468E-04   4.64729E-04   1.26241E-07   2.03189E-10   1.62287E-01   8.36893E-01
       673.077    8.77700E-04       1234.200   3.55386E-04   4.64729E-04   1.31856E-07   1.37816E-10   1.62287E-01   8.36893E-01
       692.308    6.20015E-04       1215.800   3.54977E-04   4.64729E-04   1.37880E-07   9.48419E-11   1.62286E-01   8.36894E-01
       711.538    4.37987E-04       1197.500   3.53916E-04   4.64622E-04   1.44112E-07   6.57658E-11   1.62289E-01   8.36893E-01
       730.769    3.09400E-04       1180.000   3.53916E-04   4.64622E-04   1.51950E-07   4.70978E-11   1.62288E-01   8.36893E-01
       750.000    2.18564E-04       1163.300   3.53916E-04   4.64622E-04   1.59882E-07   3.31131E-11   1.62288E-01   8.36893E-01
       769.231    1.54394E-04       1146.900   3.53916E-04   4.64622E-04   1.67996E-07   2.31739E-11   1.62288E-01   8.36893E-01
       788.462    1.09065E-04       1130.500   3.53916E-04   4.64622E-04   1.76604E-07   1.62181E-11   1.62288E-01   8.36893E-01
       807.692    7.70452E-05       1113.300   3.53834E-04   4.64622E-04   1.85994E-07   1.15080E-11   1.62288E-01   8.36894E-01
       826.923    5.44249E-05       1095.500   3.53671E-04   4.64622E-04   1.96879E-07   8.45279E-12   1.62287E-01   8.36895E-01
       846.154    3.84466E-05       1077.700   3.53590E-04   4.64622E-04   2.10378E-07   6.54636E-12   1.62287E-01   8.36895E-01
       865.385    2.71591E-05       1061.700   3.53427E-04   4.64622E-04   2.23306E-07   4.84173E-12   1.62287E-01   8.36895E-01
       884.615    1.91858E-05       1049.200   3.53346E-04   4.64622E-04   2.33938E-07   3.28852E-12   1.62287E-01   8.36894E-01
       903.846    1.35524E-05       1041.200   3.53265E-04   4.64622E-04   2.40991E-07   1.99526E-12   1.62288E-01   8.36894E-01
       923.077    9.57375E-06       1038.200   3.53265E-04   4.64622E-04   2.43669E-07   1.07152E-12   1.62288E-01   8.36894E-01
       942.308    6.76299E-06       1040.000   3.53265E-04   4.64622E-04   2.42047E-07   5.11681E-13   1.62288E-01   8.36894E-01
       961.538    4.77750E-06       1046.100   3.53346E-04   4.64622E-04   2.36647E-07   2.19786E-13   1.62288E-01   8.36894E-01
       980.769    3.37488E-06       1056.200   3.53509E-04   4.64622E-04   2.27929E-07   8.55067E-14   1.62288E-01   8.36894E-01
      1000.000    2.38401E-06       1067.600   3.53671E-04   4.64622E-04   2.18524E-07   3.22107E-14   1.62285E-01   8.36896E-01