           1
  87   0.00  53  6
   1    0
   2    0
   5    0
   6    0
  40    0
  39    0
  height (km)  press (atm)   temp (K)    VMR gas  1   VMR gas  2   VMR gas  3   VMR gas  4   VMR gas  5   VMR gas  6   VMR gas
         0.000  0.16841E+03    2496.0000  0.55693E-03  0.39030E-03  0.42160E-07  0.46036E-04  0.16247E+00  0.83654E+00
        61.368  0.11896E+03    2260.2000  0.56702E-03  0.37592E-03  0.46655E-07  0.64091E-04  0.16237E+00  0.83662E+00
       117.683  0.84038E+02    2097.3999  0.57996E-03  0.36898E-03  0.52048E-07  0.75771E-04  0.16234E+00  0.83663E+00
       172.771  0.59365E+02    2159.0000  0.53728E-03  0.41305E-03  0.51654E-07  0.31557E-04  0.16235E+00  0.83667E+00
       231.236  0.41936E+02    2352.7000  0.50142E-03  0.44999E-03  0.46957E-07  0.68454E-05  0.16245E+00  0.83660E+00
       293.798  0.29625E+02    2468.8000  0.48955E-03  0.46111E-03  0.44402E-07  0.21208E-05  0.16258E+00  0.83647E+00
       358.077  0.20927E+02    2477.0000  0.48832E-03  0.46164E-03  0.44228E-07  0.10245E-05  0.16267E+00  0.83637E+00
       421.947  0.14783E+02    2429.6001  0.48775E-03  0.46217E-03  0.45227E-07  0.62676E-06  0.16266E+00  0.83639E+00
       483.999  0.10443E+02    2328.3999  0.48775E-03  0.46313E-03  0.47676E-07  0.49957E-06  0.16255E+00  0.83650E+00
       543.089  0.73770E+01    2195.6001  0.48843E-03  0.46334E-03  0.51594E-07  0.49363E-06  0.16245E+00  0.83660E+00
       598.930  0.52112E+01    2072.3999  0.48910E-03  0.46323E-03  0.56169E-07  0.50408E-06  0.16238E+00  0.83667E+00
       651.967  0.36812E+01    1975.3000  0.48933E-03  0.46355E-03  0.60492E-07  0.46655E-06  0.16234E+00  0.83671E+00
       702.861  0.26004E+01    1903.2000  0.48899E-03  0.46409E-03  0.64343E-07  0.38619E-06  0.16232E+00  0.83672E+00
       752.211  0.18370E+01    1852.6000  0.48922E-03  0.46409E-03  0.67562E-07  0.28523E-06  0.16232E+00  0.83673E+00
       800.523  0.12976E+01    1819.1000  0.48910E-03  0.46430E-03  0.69807E-07  0.18506E-06  0.16231E+00  0.83673E+00
       848.208  0.91667E+00    1801.0000  0.48888E-03  0.46452E-03  0.71040E-07  0.10641E-06  0.16232E+00  0.83673E+00
       895.546  0.64755E+00    1787.9000  0.48820E-03  0.46452E-03  0.71978E-07  0.59607E-07  0.16232E+00  0.83673E+00
       942.514  0.45744E+00    1768.5000  0.48786E-03  0.46451E-03  0.73502E-07  0.35270E-07  0.16232E+00  0.83673E+00
       988.913  0.32314E+00    1740.3000  0.48854E-03  0.46451E-03  0.75945E-07  0.22506E-07  0.16232E+00  0.83673E+00
      1034.538  0.22827E+00    1705.7000  0.48899E-03  0.46462E-03  0.78995E-07  0.15209E-07  0.16231E+00  0.83674E+00
      1079.233  0.16125E+00    1666.2000  0.47566E-03  0.46462E-03  0.80761E-07  0.11460E-07  0.16230E+00  0.83676E+00
      1122.876  0.11391E+00    1622.1000  0.47566E-03  0.46462E-03  0.85467E-07  0.88552E-08  0.16230E+00  0.83676E+00
      1165.367  0.80466E-01    1575.2000  0.45604E-03  0.46462E-03  0.87458E-07  0.75910E-08  0.16229E+00  0.83679E+00
      1206.670  0.56842E-01    1528.9000  0.41687E-03  0.46462E-03  0.85664E-07  0.69839E-08  0.16229E+00  0.83683E+00
      1246.889  0.40154E-01    1489.9000  0.39537E-03  0.46473E-03  0.86357E-07  0.58036E-08  0.16228E+00  0.83685E+00
      1286.234  0.28365E-01    1459.8000  0.38779E-03  0.46473E-03  0.89289E-07  0.43521E-08  0.16229E+00  0.83686E+00
      1324.851  0.20038E-01    1432.2000  0.38019E-03  0.46473E-03  0.91876E-07  0.31645E-08  0.16229E+00  0.83687E+00
      1362.750  0.14155E-01    1402.8000  0.36568E-03  0.46473E-03  0.93047E-07  0.23999E-08  0.16228E+00  0.83689E+00
      1399.896  0.99985E-02    1372.8000  0.36299E-03  0.46473E-03  0.98220E-07  0.18776E-08  0.16229E+00  0.83689E+00
      1436.295  0.70633E-02    1344.8000  0.36283E-03  0.46473E-03  0.10406E-06  0.14250E-08  0.16229E+00  0.83689E+00
      1472.039  0.49896E-02    1321.1000  0.36000E-03  0.46473E-03  0.10849E-06  0.10200E-08  0.16229E+00  0.83689E+00
      1507.244  0.35247E-02    1302.1000  0.35563E-03  0.46473E-03  0.11148E-06  0.68391E-09  0.16229E+00  0.83689E+00
      1542.002  0.24899E-02    1285.4000  0.35522E-03  0.46473E-03  0.11601E-06  0.45530E-09  0.16229E+00  0.83689E+00
      1576.344  0.17589E-02    1268.7000  0.35547E-03  0.46473E-03  0.12103E-06  0.30353E-09  0.16229E+00  0.83689E+00
      1610.270  0.12424E-02    1251.8000  0.35547E-03  0.46473E-03  0.12624E-06  0.20319E-09  0.16229E+00  0.83689E+00
      1643.753  0.87770E-03    1234.2000  0.35539E-03  0.46473E-03  0.13186E-06  0.13782E-09  0.16229E+00  0.83689E+00
      1676.783  0.62002E-03    1215.8000  0.35498E-03  0.46473E-03  0.13788E-06  0.94842E-10  0.16229E+00  0.83689E+00
      1709.347  0.43799E-03    1197.5000  0.35392E-03  0.46462E-03  0.14411E-06  0.65766E-10  0.16229E+00  0.83689E+00
      1741.454  0.30940E-03    1180.0000  0.35392E-03  0.46462E-03  0.15195E-06  0.47098E-10  0.16229E+00  0.83689E+00
      1773.127  0.21856E-03    1163.3000  0.35392E-03  0.46462E-03  0.15988E-06  0.33113E-10  0.16229E+00  0.83689E+00
      1804.380  0.15439E-03    1146.9000  0.35392E-03  0.46462E-03  0.16800E-06  0.23174E-10  0.16229E+00  0.83689E+00
      1835.213  0.10906E-03    1130.5000  0.35392E-03  0.46462E-03  0.17660E-06  0.16218E-10  0.16229E+00  0.83689E+00
      1865.615  0.77045E-04    1113.3000  0.35383E-03  0.46462E-03  0.18599E-06  0.11508E-10  0.16229E+00  0.83689E+00
      1895.569  0.54425E-04    1095.5000  0.35367E-03  0.46462E-03  0.19688E-06  0.84528E-11  0.16229E+00  0.83689E+00
      1925.061  0.38447E-04    1077.7000  0.35359E-03  0.46462E-03  0.21038E-06  0.65464E-11  0.16229E+00  0.83689E+00
      1954.117  0.27159E-04    1061.7000  0.35343E-03  0.46462E-03  0.22331E-06  0.48417E-11  0.16229E+00  0.83689E+00
      1982.807  0.19186E-04    1049.2000  0.35335E-03  0.46462E-03  0.23394E-06  0.32885E-11  0.16229E+00  0.83689E+00
      2011.244  0.13552E-04    1041.2000  0.35326E-03  0.46462E-03  0.24099E-06  0.19953E-11  0.16229E+00  0.83689E+00
      2039.548  0.95737E-05    1038.2000  0.35326E-03  0.46462E-03  0.24367E-06  0.10715E-11  0.16229E+00  0.83689E+00
      2067.858  0.67630E-05    1040.0000  0.35326E-03  0.46462E-03  0.24205E-06  0.51168E-12  0.16229E+00  0.83689E+00
      2096.296  0.47775E-05    1046.1000  0.35335E-03  0.46462E-03  0.23665E-06  0.21979E-12  0.16229E+00  0.83689E+00
      2124.977  0.33749E-05    1056.2000  0.35351E-03  0.46462E-03  0.22793E-06  0.85507E-13  0.16229E+00  0.83689E+00
      2153.975  0.23840E-05    1067.6000  0.35367E-03  0.46462E-03  0.21852E-06  0.32211E-13  0.16229E+00  0.83690E+00
