1
1
  87  0.0   53    6
   1    0
   2    0
   5    0
   6    0
  40    0
  39    0
   height (km)    press (atm)       temp (K)    VMR gas  0    VMR gas  1    VMR gas  2    VMR gas  3    VMR gas  4    VMR gas  5
         0.000    1.68409E+02       2500.200   5.56160E-04   4.21211E-08   3.91111E-04   4.54046E-05   1.62468E-01   8.36540E-01
        27.015    1.18964E+02       2325.100   5.51696E-04   4.58670E-08   3.94185E-04   4.99115E-05   1.62388E-01   8.36616E-01
        54.029    8.40385E+01       2281.300   5.31129E-04   4.83059E-08   4.20727E-04   3.41664E-05   1.62373E-01   8.36641E-01
        81.044    5.93654E+01       2276.200   5.19159E-04   4.86407E-08   4.32116E-04   1.83992E-05   1.62384E-01   8.36646E-01
       108.059    4.19363E+01       2226.400   5.10975E-04   5.02458E-08   4.40048E-04   1.23481E-05   1.62376E-01   8.36661E-01
       135.073    2.96245E+01       2120.400   5.01187E-04   5.41252E-08   4.51544E-04   1.15718E-05   1.62335E-01   8.36701E-01
       162.088    2.09267E+01       1977.400   5.08628E-04   6.01173E-08   4.44120E-04   1.37120E-05   1.62315E-01   8.36719E-01
       189.103    1.47831E+01       1838.800   4.89328E-04   6.35331E-08   4.30626E-04   1.90941E-05   1.62308E-01   8.36753E-01
       216.117    1.04426E+01       1724.900   4.37321E-04   6.40030E-08   4.30031E-04   2.78740E-05   1.62303E-01   8.36802E-01
       243.132    7.37696E+00       1631.400   4.19566E-04   6.64508E-08   4.14572E-04   3.43163E-05   1.62304E-01   8.36827E-01
       270.147    5.21115E+00       1551.200   4.19276E-04   7.11214E-08   3.96552E-04   3.87793E-05   1.62311E-01   8.36835E-01
       297.161    3.68122E+00       1479.600   4.14095E-04   7.82708E-08   3.94912E-04   4.52064E-05   1.62308E-01   8.36838E-01
       324.176    2.60044E+00       1413.200   4.16773E-04   8.97842E-08   4.00590E-04   5.35797E-05   1.62305E-01   8.36824E-01
       351.190    1.83696E+00       1351.600   4.35913E-04   9.84464E-08   3.71108E-04   5.78229E-05   1.62317E-01   8.36818E-01
       378.205    1.29761E+00       1295.300   4.35813E-04   1.10510E-07   3.69913E-04   6.74218E-05   1.62316E-01   8.36811E-01
       405.220    9.16674E-01       1244.500   4.48642E-04   1.26561E-07   3.62577E-04   7.76426E-05   1.62322E-01   8.36789E-01
       432.234    6.47550E-01       1199.700   4.56878E-04   1.40249E-07   3.52614E-04   8.08537E-05   1.62326E-01   8.36783E-01
       459.249    4.57439E-01       1160.600   4.65693E-04   1.46319E-07   3.20479E-04   8.04266E-05   1.62336E-01   8.36797E-01
       486.264    3.23138E-01       1125.000   4.61318E-04   1.72624E-07   3.42610E-04   9.01987E-05   1.62327E-01   8.36779E-01
       513.278    2.28265E-01       1092.200   4.62594E-04   1.90634E-07   3.39782E-04   9.00534E-05   1.62327E-01   8.36780E-01
       540.293    1.61253E-01       1061.500   4.73260E-04   1.98198E-07   3.07681E-04   8.48398E-05   1.62338E-01   8.36796E-01
       567.308    1.13911E-01       1034.100   4.69786E-04   2.30569E-07   3.25387E-04   8.84709E-05   1.62330E-01   8.36786E-01
       594.322    8.04658E-02       1010.400   4.62168E-04   2.65522E-07   3.48498E-04   8.63376E-05   1.62322E-01   8.36781E-01
       621.337    5.68418E-02        990.090   4.54988E-04   2.72709E-07   3.33734E-04   7.28115E-05   1.62327E-01   8.36811E-01
       648.352    4.01540E-02        974.700   4.45246E-04   2.88204E-07   3.35197E-04   5.91561E-05   1.62326E-01   8.36834E-01
       675.366    2.83652E-02        963.700   4.29141E-04   3.23817E-07   3.71022E-04   4.71520E-05   1.62314E-01   8.36838E-01
       702.381    2.00375E-02        953.130   4.21600E-04   3.41901E-07   3.79402E-04   3.36357E-05   1.62315E-01   8.36850E-01
       729.396    1.41545E-02        943.300   4.06350E-04   3.63078E-07   3.99117E-04   2.45923E-05   1.62309E-01   8.36861E-01
       756.410    9.99852E-03        936.860   3.83707E-04   3.82472E-07   4.31917E-04   1.70569E-05   1.62296E-01   8.36871E-01
       783.425    7.06331E-03        932.880   3.76444E-04   3.89135E-07   4.39643E-04   9.95176E-06   1.62293E-01   8.36881E-01
       810.440    4.98959E-03        931.080   3.68638E-04   3.91291E-07   4.47610E-04   5.45005E-06   1.62292E-01   8.36886E-01
       837.454    3.52470E-03        930.220   3.60496E-04   3.91651E-07   4.56247E-04   2.90871E-06   1.62288E-01   8.36892E-01
       864.469    2.48991E-03        927.980   3.56041E-04   3.95094E-07   4.61105E-04   1.58928E-06   1.62287E-01   8.36894E-01
       891.484    1.75889E-03        922.320   3.55058E-04   4.05508E-07   4.62062E-04   9.43626E-07   1.62287E-01   8.36895E-01
       918.498    1.24244E-03        913.800   3.54079E-04   4.21794E-07   4.63020E-04   6.11083E-07   1.62287E-01   8.36895E-01
       945.513    8.77700E-04        902.490   3.53265E-04   4.44631E-07   4.63874E-04   4.29932E-07   1.62287E-01   8.36895E-01
       972.528    6.20015E-04        888.800   3.54568E-04   4.81837E-07   4.62381E-04   3.48337E-07   1.62287E-01   8.36895E-01
       999.542    4.37987E-04        875.010   3.54895E-04   5.23842E-07   4.61955E-04   2.90068E-07   1.62287E-01   8.36895E-01
      1026.557    3.09400E-04        861.530   3.53753E-04   5.67937E-07   4.63020E-04   2.40602E-07   1.62287E-01   8.36895E-01
      1053.572    2.18564E-04        847.760   3.53427E-04   6.17163E-07   4.63340E-04   2.00863E-07   1.62287E-01   8.36895E-01
      1080.586    1.54394E-04        832.750   3.53183E-04   6.75772E-07   4.63447E-04   1.75509E-07   1.62287E-01   8.36895E-01
      1107.601    1.09065E-04        815.890   3.52777E-04   7.48170E-07   4.63660E-04   1.64475E-07   1.62287E-01   8.36895E-01
      1134.615    7.70452E-05        797.360   3.52696E-04   8.40621E-07   4.63554E-04   1.67494E-07   1.62287E-01   8.36896E-01
      1161.630    5.44249E-05        778.140   3.53427E-04   9.74766E-07   4.62488E-04   2.01187E-07   1.62287E-01   8.36896E-01
      1188.645    3.84466E-05        759.960   3.53183E-04   1.12047E-06   4.62488E-04   2.31526E-07   1.62287E-01   8.36896E-01
      1215.659    2.71591E-05        743.810   3.52371E-04   1.26794E-06   4.63020E-04   2.43557E-07   1.62286E-01   8.36897E-01
      1242.674    1.91858E-05        730.580   3.52128E-04   1.40346E-06   4.63020E-04   2.23254E-07   1.62286E-01   8.36898E-01
      1269.689    1.35524E-05        719.840   3.52777E-04   1.53957E-06   4.61955E-04   1.91470E-07   1.62286E-01   8.36897E-01
      1296.703    9.57375E-06        711.960   3.52371E-04   1.66035E-06   4.62168E-04   1.48970E-07   1.62286E-01   8.36898E-01
      1323.718    6.76299E-06        705.800   3.52290E-04   1.76157E-06   4.61955E-04   1.05003E-07   1.62286E-01   8.36897E-01
      1350.733    4.77750E-06        703.750   3.51884E-04   1.79639E-06   4.62275E-04   5.88979E-08   1.62287E-01   8.36897E-01
      1377.747    3.37488E-06        703.730   3.51560E-04   1.79639E-06   4.62594E-04   2.94781E-08   1.62287E-01   8.36897E-01
      1404.762    2.38401E-06        713.250   3.51480E-04   1.63908E-06   4.63020E-04   8.62779E-09   1.62287E-01   8.36897E-01