1
1
  87  0.0   53    6
   1    0
   2    0
   5    0
   6    0
  40    0
  39    0
   height (km)    press (atm)       temp (K)    VMR gas  0    VMR gas  1    VMR gas  2    VMR gas  3    VMR gas  4    VMR gas  5
         0.000    1.68409E+02       2501.200   5.56032E-04   4.21017E-08   3.91291E-04   4.52585E-05   1.62469E-01   8.36539E-01
        27.015    1.18964E+02       2349.700   5.47394E-04   4.54779E-08   3.98841E-04   4.54464E-05   1.62400E-01   8.36608E-01
        54.029    8.40385E+01       2310.300   5.26017E-04   4.76541E-08   4.26187E-04   3.02065E-05   1.62382E-01   8.36636E-01
        81.044    5.93654E+01       2280.900   5.18442E-04   4.85288E-08   4.32912E-04   1.80053E-05   1.62387E-01   8.36644E-01
       108.059    4.19363E+01       2236.000   5.10035E-04   4.99804E-08   4.40961E-04   1.17869E-05   1.62380E-01   8.36657E-01
       135.073    2.96245E+01       2170.200   4.97737E-04   5.23600E-08   4.54883E-04   8.79832E-06   1.62351E-01   8.36687E-01
       162.088    2.09267E+01       2082.400   5.00034E-04   5.56545E-08   4.52689E-04   7.32150E-06   1.62336E-01   8.36704E-01
       189.103    1.47831E+01       1981.100   5.00611E-04   6.00482E-08   4.52168E-04   6.89763E-06   1.62315E-01   8.36725E-01
       216.117    1.04426E+01       1879.700   4.90908E-04   6.47441E-08   4.54988E-04   7.29289E-06   1.62305E-01   8.36742E-01
       243.132    7.37696E+00       1801.600   4.74679E-04   6.74838E-08   4.54779E-04   6.92150E-06   1.62302E-01   8.36762E-01
       270.147    5.21115E+00       1753.400   4.51232E-04   6.74218E-08   4.53106E-04   5.51823E-06   1.62298E-01   8.36792E-01
       297.161    3.68122E+00       1714.500   4.28253E-04   6.73597E-08   4.56878E-04   4.11339E-06   1.62290E-01   8.36821E-01
       324.176    2.60044E+00       1664.000   4.07662E-04   6.86911E-08   4.59939E-04   3.52209E-06   1.62288E-01   8.36841E-01
       351.190    1.83696E+00       1597.200   3.82384E-04   7.00487E-08   4.58670E-04   3.63999E-06   1.62292E-01   8.36863E-01
       378.205    1.29761E+00       1519.200   3.69573E-04   7.57007E-08   4.56562E-04   4.50505E-06   1.62288E-01   8.36881E-01
       405.220    9.16674E-01       1438.800   3.63245E-04   8.52904E-08   4.56667E-04   6.26037E-06   1.62289E-01   8.36885E-01
       432.234    6.47550E-01       1361.700   3.70425E-04   9.88326E-08   4.47610E-04   8.77809E-06   1.62290E-01   8.36883E-01
       459.249    4.57439E-01       1288.200   3.78007E-04   1.15531E-07   4.38026E-04   1.29509E-05   1.62294E-01   8.36877E-01
       486.264    3.23138E-01       1218.100   3.82296E-04   1.37848E-07   4.33810E-04   2.14635E-05   1.62293E-01   8.36869E-01
       513.278    2.28265E-01       1151.300   4.08978E-04   1.66226E-07   4.03181E-04   3.47136E-05   1.62307E-01   8.36846E-01
       540.293    1.61253E-01       1088.700   4.33112E-04   1.95209E-07   3.66606E-04   5.65457E-05   1.62317E-01   8.36826E-01
       567.308    1.13911E-01       1033.000   4.71303E-04   2.31153E-07   3.23966E-04   9.01779E-05   1.62330E-01   8.36784E-01
       594.322    8.04658E-02        981.790   5.10388E-04   2.50957E-07   2.63269E-04   1.31583E-04   1.62348E-01   8.36747E-01
       621.337    5.68418E-02        936.660   5.62471E-04   2.44231E-07   1.87888E-04   1.64475E-04   1.62378E-01   8.36707E-01
       648.352    4.01540E-02        895.600   6.02282E-04   2.84184E-07   1.67225E-04   2.41379E-04   1.62375E-01   8.36614E-01
       675.366    2.83652E-02        858.510   6.34892E-04   2.18625E-07   9.74766E-05   2.65216E-04   1.62395E-01   8.36608E-01
       702.381    2.00375E-02        827.360   6.72822E-04   2.02069E-07   7.03721E-05   2.87806E-04   1.62411E-01   8.36558E-01
       729.396    1.41545E-02        799.130   7.25437E-04   2.49977E-07   6.79203E-05   3.70766E-04   1.62410E-01   8.36425E-01
       756.410    9.99852E-03        772.610   7.34007E-04   1.90195E-07   4.16198E-05   3.78879E-04   1.62417E-01   8.36429E-01
       783.425    7.06331E-03        750.010   7.33838E-04   1.56135E-07   2.87012E-05   3.68299E-04   1.62425E-01   8.36444E-01
       810.440    4.98959E-03        732.650   7.55092E-04   1.82390E-07   2.84971E-05   3.93731E-04   1.62425E-01   8.36398E-01
       837.454    3.52470E-03        719.440   7.70016E-04   2.32006E-07   3.17468E-05   4.16678E-04   1.62423E-01   8.36358E-01
       864.469    2.48991E-03        710.200   7.44732E-04   2.63572E-07   3.41036E-05   3.87882E-04   1.62420E-01   8.36413E-01
       891.484    1.75889E-03        701.620   7.11705E-04   2.93427E-07   3.65511E-05   3.51237E-04   1.62415E-01   8.36485E-01
       918.498    1.24244E-03        693.290   6.92150E-04   3.55140E-07   4.19566E-05   3.30293E-04   1.62411E-01   8.36524E-01
       945.513    8.77700E-04        683.120   6.85804E-04   4.14286E-07   4.47610E-05   3.14051E-04   1.62410E-01   8.36545E-01
       972.528    6.20015E-04        673.280   6.82182E-04   4.89779E-07   4.83616E-05   2.95529E-04   1.62413E-01   8.36560E-01
       999.542    4.37987E-04        663.990   6.90081E-04   6.70039E-07   5.97586E-05   3.03529E-04   1.62413E-01   8.36533E-01
      1026.557    3.09400E-04        654.780   7.11377E-04   1.04641E-06   8.27943E-05   3.41350E-04   1.62407E-01   8.36457E-01
      1053.572    2.18564E-04        645.560   6.84542E-04   1.14499E-06   8.50354E-05   3.24564E-04   1.62401E-01   8.36504E-01
      1080.586    1.54394E-04        635.900   6.48635E-04   1.03825E-06   7.21606E-05   2.85562E-04   1.62402E-01   8.36591E-01
      1107.601    1.09065E-04        623.930   6.36942E-04   9.58959E-07   5.84656E-05   2.72145E-04   1.62403E-01   8.36629E-01
      1134.615    7.70452E-05        610.570   6.46249E-04   8.66962E-07   4.40859E-05   2.57513E-04   1.62416E-01   8.36635E-01
      1161.630    5.44249E-05        595.590   6.81553E-04   8.88792E-07   3.55549E-05   2.80737E-04   1.62425E-01   8.36576E-01
      1188.645    3.84466E-05        580.910   7.40457E-04   1.16198E-06   3.56205E-05   3.61660E-04   1.62422E-01   8.36439E-01
      1215.659    2.71591E-05        566.280   7.60677E-04   1.03633E-06   2.48714E-05   4.07380E-04   1.62419E-01   8.36387E-01
      1242.674    1.91858E-05        553.060   7.30971E-04   6.66193E-07   1.33752E-05   3.74714E-04   1.62419E-01   8.36461E-01
      1269.689    1.35524E-05        541.730   7.17299E-04   5.36043E-07   9.09494E-06   3.59832E-04   1.62422E-01   8.36491E-01
      1296.703    9.57375E-06        532.690   7.12689E-04   5.32844E-07   7.83790E-06   3.52047E-04   1.62424E-01   8.36503E-01
      1323.718    6.76299E-06        526.040   7.04044E-04   5.87219E-07   7.83430E-06   3.23817E-04   1.62430E-01   8.36534E-01
      1350.733    4.77750E-06        521.690   6.97590E-04   7.91407E-07   9.91745E-06   3.05633E-04   1.62433E-01   8.36553E-01
      1377.747    3.37488E-06        520.150   6.83282E-04   1.25343E-06   1.56351E-05   2.82033E-04   1.62433E-01   8.36585E-01
      1404.762    2.38401E-06        521.290   6.56599E-04   2.07874E-06   2.74979E-05   2.32327E-04   1.62432E-01   8.36649E-01