           1
  87   0.00  53  6
   1    0
   2    0
   5    0
   6    0
  40    0
  39    0
  height (km)  press (atm)   temp (K)    VMR gas  1   VMR gas  2   VMR gas  3   VMR gas  4   VMR gas  5   VMR gas  6   VMR gas
         0.000  0.16841E+03    2500.2000  0.55616E-03  0.42121E-07  0.39111E-03  0.45405E-04  0.16247E+00  0.83654E+00
        62.347  0.11896E+03    2319.3000  0.55259E-03  0.45962E-07  0.39310E-03  0.51015E-04  0.16239E+00  0.83662E+00
       121.738  0.84038E+02    2264.3999  0.53481E-03  0.48686E-07  0.41697E-03  0.36771E-04  0.16237E+00  0.83664E+00
       180.351  0.59365E+02    2251.8000  0.52288E-03  0.49261E-07  0.42815E-03  0.20583E-04  0.16238E+00  0.83665E+00
       238.226  0.41936E+02    2200.5000  0.51333E-03  0.50980E-07  0.43742E-03  0.14006E-04  0.16236E+00  0.83667E+00
       294.211  0.29625E+02    2100.0000  0.50304E-03  0.54916E-07  0.44978E-03  0.13011E-04  0.16233E+00  0.83670E+00
       347.131  0.20927E+02    1958.9000  0.51133E-03  0.61010E-07  0.44137E-03  0.15428E-04  0.16231E+00  0.83672E+00
       396.397  0.14783E+02    1814.2000  0.48206E-03  0.63270E-07  0.42501E-03  0.23185E-04  0.16231E+00  0.83676E+00
       442.292  0.10443E+02    1694.5000  0.42766E-03  0.63504E-07  0.42160E-03  0.36694E-04  0.16230E+00  0.83681E+00
       485.439  0.73770E+01    1599.9000  0.41899E-03  0.67282E-07  0.40364E-03  0.45740E-04  0.16231E+00  0.83682E+00
       526.372  0.52112E+01    1521.1000  0.43023E-03  0.73384E-07  0.38115E-03  0.50992E-04  0.16231E+00  0.83682E+00
       565.418  0.36812E+01    1452.7000  0.42983E-03  0.80910E-07  0.37523E-03  0.58560E-04  0.16231E+00  0.83682E+00
       602.805  0.26004E+01    1391.9000  0.43033E-03  0.92683E-07  0.38486E-03  0.66711E-04  0.16231E+00  0.83681E+00
       638.718  0.18370E+01    1337.8000  0.44627E-03  0.10048E-06  0.35950E-03  0.67267E-04  0.16232E+00  0.83681E+00
       673.315  0.12976E+01    1289.1000  0.44239E-03  0.11089E-06  0.36000E-03  0.72028E-04  0.16232E+00  0.83681E+00
       706.706  0.91667E+00    1244.5000  0.44864E-03  0.12659E-06  0.36249E-03  0.77714E-04  0.16232E+00  0.83679E+00
       739.023  0.64755E+00    1205.3000  0.45238E-03  0.13868E-06  0.35719E-03  0.74920E-04  0.16232E+00  0.83679E+00
       770.428  0.45744E+00    1173.0000  0.45092E-03  0.14504E-06  0.34072E-03  0.68423E-04  0.16233E+00  0.83681E+00
       801.090  0.32314E+00    1147.0000  0.43813E-03  0.16379E-06  0.36602E-03  0.64476E-04  0.16232E+00  0.83681E+00
       831.187  0.22827E+00    1128.6000  0.42668E-03  0.17750E-06  0.38512E-03  0.50781E-04  0.16231E+00  0.83682E+00
       860.850  0.16125E+00    1112.6000  0.41068E-03  0.18681E-06  0.40114E-03  0.38089E-04  0.16231E+00  0.83684E+00
       890.163  0.11391E+00    1100.4000  0.38717E-03  0.19490E-06  0.42786E-03  0.27625E-04  0.16229E+00  0.83687E+00
       919.204  0.80466E-01    1090.2000  0.38098E-03  0.20202E-06  0.43381E-03  0.18260E-04  0.16229E+00  0.83687E+00
       948.062  0.56842E-01    1085.0000  0.37610E-03  0.20545E-06  0.43843E-03  0.10595E-04  0.16229E+00  0.83688E+00
       976.860  0.40154E-01    1084.0000  0.36703E-03  0.20602E-06  0.44885E-03  0.56794E-05  0.16229E+00  0.83689E+00
      1005.651  0.28365E-01    1082.9000  0.35876E-03  0.20678E-06  0.45888E-03  0.30493E-05  0.16229E+00  0.83689E+00
      1034.354  0.20038E-01    1075.7000  0.35810E-03  0.21228E-06  0.45952E-03  0.18201E-05  0.16229E+00  0.83689E+00
      1062.837  0.14155E-01    1064.7000  0.35703E-03  0.22111E-06  0.46057E-03  0.11984E-05  0.16229E+00  0.83689E+00
      1091.041  0.99985E-02    1053.0000  0.35473E-03  0.23068E-06  0.46302E-03  0.80705E-06  0.16229E+00  0.83689E+00
      1118.953  0.70633E-02    1041.6000  0.35440E-03  0.24066E-06  0.46323E-03  0.53383E-06  0.16229E+00  0.83689E+00
      1146.607  0.49896E-02    1031.9000  0.35400E-03  0.24952E-06  0.46355E-03  0.33908E-06  0.16229E+00  0.83689E+00
      1174.047  0.35247E-02    1024.1000  0.35351E-03  0.25680E-06  0.46409E-03  0.20554E-06  0.16229E+00  0.83689E+00
      1201.309  0.24899E-02    1017.1000  0.35318E-03  0.26351E-06  0.46441E-03  0.12195E-06  0.16229E+00  0.83689E+00
      1228.394  0.17589E-02    1009.3000  0.35310E-03  0.27133E-06  0.46441E-03  0.73790E-07  0.16229E+00  0.83690E+00
      1255.286  0.12424E-02    1001.0000  0.35294E-03  0.27983E-06  0.46452E-03  0.45206E-07  0.16229E+00  0.83690E+00
      1281.945  0.87770E-03     990.8800  0.35294E-03  0.29322E-06  0.46441E-03  0.30423E-07  0.16229E+00  0.83690E+00
      1308.324  0.62002E-03     978.5400  0.35294E-03  0.31081E-06  0.46441E-03  0.21974E-07  0.16229E+00  0.83690E+00
      1334.378  0.43799E-03     965.2800  0.35294E-03  0.33075E-06  0.46441E-03  0.16319E-07  0.16229E+00  0.83690E+00
      1360.089  0.30940E-03     951.6900  0.35286E-03  0.35261E-06  0.46441E-03  0.12246E-07  0.16229E+00  0.83690E+00
      1385.452  0.21856E-03     937.9400  0.35278E-03  0.37618E-06  0.46441E-03  0.92300E-08  0.16229E+00  0.83690E+00
      1410.456  0.15439E-03     923.6800  0.35278E-03  0.40235E-06  0.46441E-03  0.70632E-08  0.16229E+00  0.83690E+00
      1435.077  0.10906E-03     908.2200  0.35270E-03  0.43271E-06  0.46441E-03  0.56040E-08  0.16229E+00  0.83690E+00
      1459.278  0.77045E-04     891.4100  0.35270E-03  0.47370E-06  0.46430E-03  0.49283E-08  0.16229E+00  0.83690E+00
      1483.032  0.54425E-04     873.6700  0.35261E-03  0.52735E-06  0.46419E-03  0.47621E-08  0.16229E+00  0.83690E+00
      1506.325  0.38447E-04     856.2800  0.35261E-03  0.58587E-06  0.46419E-03  0.45436E-08  0.16229E+00  0.83690E+00
      1529.187  0.27159E-04     840.5200  0.35253E-03  0.64447E-06  0.46409E-03  0.40794E-08  0.16229E+00  0.83690E+00
      1551.673  0.19186E-04     827.4200  0.35245E-03  0.69759E-06  0.46409E-03  0.33174E-08  0.16229E+00  0.83690E+00
      1573.860  0.13552E-04     817.0800  0.35237E-03  0.74268E-06  0.46409E-03  0.24333E-08  0.16229E+00  0.83690E+00
      1595.824  0.95737E-05     810.2900  0.35237E-03  0.77375E-06  0.46409E-03  0.15635E-08  0.16229E+00  0.83690E+00
      1617.660  0.67630E-05     806.5600  0.35237E-03  0.79141E-06  0.46398E-03  0.89681E-09  0.16229E+00  0.83690E+00
      1639.494  0.47775E-05     809.2400  0.35237E-03  0.77875E-06  0.46398E-03  0.40495E-09  0.16229E+00  0.83690E+00
      1661.467  0.33749E-05     815.8800  0.35237E-03  0.74800E-06  0.46409E-03  0.15780E-09  0.16229E+00  0.83690E+00
      1683.855  0.23840E-05     838.8700  0.35245E-03  0.65088E-06  0.46419E-03  0.33419E-10  0.16229E+00  0.83690E+00
