           1
  87   0.00  20  6
   1    0
   2    0
   5    0
   6    0
  40    0
  39    0
  height (km)  press (atm)   temp (K)    VMR gas  1   VMR gas  2   VMR gas  3   VMR gas  4   VMR gas  5   VMR gas  6   VMR gas
         0.000  0.19739E+02    2294.2300  0.10000E-03  0.10000E-03  0.10000E-03  0.10000E-03  0.00000E+00  0.99960E+00
       103.270  0.11720E+02    2275.6970  0.10000E-03  0.10000E-03  0.10000E-03  0.10000E-03  0.00000E+00  0.99960E+00
       205.175  0.69594E+01    2221.4771  0.10000E-03  0.10000E-03  0.10000E-03  0.10000E-03  0.00000E+00  0.99960E+00
       303.920  0.41324E+01    2124.5410  0.10000E-03  0.10000E-03  0.10000E-03  0.10000E-03  0.00000E+00  0.99960E+00
       397.785  0.24538E+01    1996.0389  0.10000E-03  0.10000E-03  0.10000E-03  0.10000E-03  0.00000E+00  0.99960E+00
       485.722  0.14570E+01    1854.8910  0.10000E-03  0.10000E-03  0.10000E-03  0.10000E-03  0.00000E+00  0.99960E+00
       567.508  0.86515E+00    1718.5389  0.10000E-03  0.10000E-03  0.10000E-03  0.10000E-03  0.00000E+00  0.99960E+00
       643.602  0.51372E+00    1599.1490  0.10000E-03  0.10000E-03  0.10000E-03  0.10000E-03  0.00000E+00  0.99960E+00
       714.892  0.30504E+00    1502.9709  0.10000E-03  0.10000E-03  0.10000E-03  0.10000E-03  0.00000E+00  0.99960E+00
       782.445  0.18113E+00    1431.0220  0.10000E-03  0.10000E-03  0.10000E-03  0.10000E-03  0.00000E+00  0.99960E+00
       847.294  0.10755E+00    1380.5590  0.10000E-03  0.10000E-03  0.10000E-03  0.10000E-03  0.00000E+00  0.99960E+00
       910.313  0.63862E-01    1346.9780  0.10000E-03  0.10000E-03  0.10000E-03  0.10000E-03  0.00000E+00  0.99960E+00
       972.163  0.37920E-01    1325.4990  0.10000E-03  0.10000E-03  0.10000E-03  0.10000E-03  0.00000E+00  0.99960E+00
      1033.307  0.22517E-01    1312.1379  0.10000E-03  0.10000E-03  0.10000E-03  0.10000E-03  0.00000E+00  0.99960E+00
      1094.050  0.13370E-01    1303.9790  0.10000E-03  0.10000E-03  0.10000E-03  0.10000E-03  0.00000E+00  0.99960E+00
      1154.588  0.79390E-02    1299.0530  0.10000E-03  0.10000E-03  0.10000E-03  0.10000E-03  0.00000E+00  0.99960E+00
      1215.039  0.47140E-02    1296.1030  0.10000E-03  0.10000E-03  0.10000E-03  0.10000E-03  0.00000E+00  0.99960E+00
      1275.478  0.27991E-02    1294.3420  0.10000E-03  0.10000E-03  0.10000E-03  0.10000E-03  0.00000E+00  0.99960E+00
      1335.948  0.16621E-02    1293.2950  0.10000E-03  0.10000E-03  0.10000E-03  0.10000E-03  0.00000E+00  0.99960E+00
      1396.476  0.98692E-03    1292.6730  0.10000E-03  0.10000E-03  0.10000E-03  0.10000E-03  0.00000E+00  0.99960E+00
