           1
  87   0.00  20  6
   1    0
   2    0
   5    0
   6    0
  40    0
  39    0
  height (km)  press (atm)   temp (K)    VMR gas  1   VMR gas  2   VMR gas  3   VMR gas  4   VMR gas  5   VMR gas  6   VMR gas
         0.000  0.19739E+02    2294.2300  0.00000E+00  0.00000E+00  0.00000E+00  0.10000E-03  0.14999E+00  0.84992E+00
        90.343  0.11720E+02    2275.6970  0.00000E+00  0.00000E+00  0.00000E+00  0.10000E-03  0.14999E+00  0.84992E+00
       179.460  0.69594E+01    2221.4771  0.00000E+00  0.00000E+00  0.00000E+00  0.10000E-03  0.14999E+00  0.84992E+00
       265.786  0.41324E+01    2124.5410  0.00000E+00  0.00000E+00  0.00000E+00  0.10000E-03  0.14999E+00  0.84992E+00
       347.818  0.24538E+01    1996.0389  0.00000E+00  0.00000E+00  0.00000E+00  0.10000E-03  0.14999E+00  0.84992E+00
       424.646  0.14570E+01    1854.8910  0.00000E+00  0.00000E+00  0.00000E+00  0.10000E-03  0.14999E+00  0.84992E+00
       496.080  0.86515E+00    1718.5389  0.00000E+00  0.00000E+00  0.00000E+00  0.10000E-03  0.14999E+00  0.84992E+00
       562.525  0.51372E+00    1599.1490  0.00000E+00  0.00000E+00  0.00000E+00  0.10000E-03  0.14999E+00  0.84992E+00
       624.759  0.30504E+00    1502.9709  0.00000E+00  0.00000E+00  0.00000E+00  0.10000E-03  0.14999E+00  0.84992E+00
       683.717  0.18113E+00    1431.0220  0.00000E+00  0.00000E+00  0.00000E+00  0.10000E-03  0.14999E+00  0.84992E+00
       740.302  0.10755E+00    1380.5590  0.00000E+00  0.00000E+00  0.00000E+00  0.10000E-03  0.14999E+00  0.84992E+00
       795.279  0.63862E-01    1346.9780  0.00000E+00  0.00000E+00  0.00000E+00  0.10000E-03  0.14999E+00  0.84992E+00
       849.225  0.37920E-01    1325.4990  0.00000E+00  0.00000E+00  0.00000E+00  0.10000E-03  0.14999E+00  0.84992E+00
       902.543  0.22517E-01    1312.1379  0.00000E+00  0.00000E+00  0.00000E+00  0.10000E-03  0.14999E+00  0.84992E+00
       955.501  0.13370E-01    1303.9790  0.00000E+00  0.00000E+00  0.00000E+00  0.10000E-03  0.14999E+00  0.84992E+00
      1008.269  0.79390E-02    1299.0530  0.00000E+00  0.00000E+00  0.00000E+00  0.10000E-03  0.14999E+00  0.84992E+00
      1060.952  0.47140E-02    1296.1030  0.00000E+00  0.00000E+00  0.00000E+00  0.10000E-03  0.14999E+00  0.84992E+00
      1113.612  0.27991E-02    1294.3420  0.00000E+00  0.00000E+00  0.00000E+00  0.10000E-03  0.14999E+00  0.84992E+00
      1166.289  0.16621E-02    1293.2950  0.00000E+00  0.00000E+00  0.00000E+00  0.10000E-03  0.14999E+00  0.84992E+00
      1219.006  0.98692E-03    1292.6730  0.00000E+00  0.00000E+00  0.00000E+00  0.10000E-03  0.14999E+00  0.84992E+00
