 original name of this file: test_point_TP.drv             
      1.143   0.209844        17   0.000     :Vmin dV Npts FWHM-CORRK
    0.000   0.000       : Additional codes PAR1 and PAR2
  TEST_POINT_TP.KLS                                                                                  
   24   0     1   0             : spectral model code, FLAGH2P, NCONT, FLAGC
 test_point_tp.xsc              : Dust x-section file
   40   1   6           : number of layers, paths and gases
    1                                    : identifier for gas 1
      0   0                              : isotope ID and process parameter
    2                                    : identifier for gas 2
      0   0                              : isotope ID and process parameter
    5                                    : identifier for gas 3
      0   0                              : isotope ID and process parameter
    6                                    : identifier for gas 4
      0   0                              : isotope ID and process parameter
   40                                    : identifier for gas 5
      0   0                              : isotope ID and process parameter
   39                                    : identifier for gas 6
      0   0                              : isotope ID and process parameter
format of layer data
 layer baseH  delH   baseP      baseT   totam       pressure    temp   doppler
        absorber amounts and partial pressures
        continuum points if any
  1    0.00   10.86 0.19739E+02  573.557 0.24486E+27 0.17662E+02  572.357  0.0000
         0.24486E+23 0.17662E-02 0.24486E+23 0.17662E-02 0.24486E+23 0.17662E-02
 0.24486E+23 0.17662E-02 0.33289E+26 0.24011E+01 0.21148E+27 0.15254E+02
         0.00000E+00
  2   10.86   10.82 0.15410E+02  571.057 0.19105E+27 0.13777E+02  570.113  0.0000
         0.19105E+23 0.13777E-02 0.19105E+23 0.13777E-02 0.19105E+23 0.13777E-02
 0.19105E+23 0.13777E-02 0.25973E+26 0.18730E+01 0.16500E+27 0.11898E+02
         0.00000E+00
  3   21.68   10.74 0.12030E+02  569.103 0.14901E+27 0.10746E+02  565.935  0.0000
         0.14901E+23 0.10746E-02 0.14901E+23 0.10746E-02 0.14901E+23 0.10746E-02
 0.14901E+23 0.10746E-02 0.20257E+26 0.14609E+01 0.12869E+27 0.92804E+01
         0.00000E+00
  4   32.42   10.62 0.93918E+01  562.270 0.11632E+27 0.83839E+01  559.424  0.0000
         0.11632E+23 0.83839E-03 0.11632E+23 0.83839E-03 0.11632E+23 0.83839E-03
 0.11632E+23 0.83839E-03 0.15813E+26 0.11398E+01 0.10046E+27 0.72408E+01
         0.00000E+00
  5   43.03   10.45 0.73320E+01  556.430 0.90680E+26 0.65397E+01  551.054  0.0000
         0.90680E+22 0.65397E-03 0.90680E+22 0.65397E-03 0.90680E+22 0.65397E-03
 0.90680E+22 0.65397E-03 0.12328E+26 0.88908E+00 0.78316E+26 0.56480E+01
         0.00000E+00
  6   53.49   10.24 0.57239E+01  544.657 0.70815E+26 0.51028E+01  539.445  0.0000
         0.70815E+22 0.51028E-03 0.70815E+22 0.51028E-03 0.70815E+22 0.51028E-03
 0.70815E+22 0.51028E-03 0.96273E+25 0.69373E+00 0.61160E+26 0.44070E+01
         0.00000E+00
  7   63.73    9.99 0.44686E+01  534.016 0.55201E+26 0.39808E+01  526.928  0.0000
         0.55201E+22 0.39808E-03 0.55201E+22 0.39808E-03 0.55201E+22 0.39808E-03
 0.55201E+22 0.39808E-03 0.75045E+25 0.54119E+00 0.47674E+26 0.34380E+01
         0.00000E+00
  8   73.72    9.71 0.34885E+01  518.532 0.43128E+26 0.31067E+01  511.479  0.0000
         0.43128E+22 0.31067E-03 0.43128E+22 0.31067E-03 0.43128E+22 0.31067E-03
 0.43128E+22 0.31067E-03 0.58633E+25 0.42235E+00 0.37248E+26 0.26831E+01
         0.00000E+00
  9   83.43    9.41 0.27234E+01  504.170 0.33622E+26 0.24239E+01  496.209  0.0000
         0.33622E+22 0.24239E-03 0.33622E+22 0.24239E-03 0.33622E+22 0.24239E-03
 0.33622E+22 0.24239E-03 0.45709E+25 0.32953E+00 0.29037E+26 0.20934E+01
         0.00000E+00
 10   92.84    9.10 0.21261E+01  486.965 0.26270E+26 0.18918E+01  479.063  0.0000
         0.26270E+22 0.18918E-03 0.26270E+22 0.18918E-03 0.26270E+22 0.18918E-03
 0.26270E+22 0.18918E-03 0.35714E+25 0.25719E+00 0.22688E+26 0.16339E+01
         0.00000E+00
 11  101.94    8.78 0.16598E+01  470.904 0.20487E+26 0.14763E+01  462.908  0.0000
         0.20487E+22 0.14763E-03 0.20487E+22 0.14763E-03 0.20487E+22 0.14763E-03
 0.20487E+22 0.14763E-03 0.27852E+25 0.20070E+00 0.17693E+26 0.12750E+01
         0.00000E+00
 12  110.72    8.47 0.12958E+01  453.878 0.16004E+26 0.11522E+01  446.086  0.0000
         0.16004E+22 0.11522E-03 0.16004E+22 0.11522E-03 0.16004E+22 0.11522E-03
 0.16004E+22 0.11522E-03 0.21757E+25 0.15664E+00 0.13822E+26 0.99510E+00
         0.00000E+00
 13  119.20    8.18 0.10116E+01  438.069 0.12483E+26 0.89924E+00  430.705  0.0000
         0.12483E+22 0.89924E-04 0.12483E+22 0.89924E-04 0.12483E+22 0.89924E-04
 0.12483E+22 0.89924E-04 0.16971E+25 0.12225E+00 0.10781E+26 0.77663E+00
         0.00000E+00
 14  127.37    7.90 0.78974E+00  422.642 0.97509E+25 0.70190E+00  415.670  0.0000
         0.97509E+21 0.70190E-04 0.97509E+21 0.70190E-04 0.97509E+21 0.70190E-04
 0.97509E+21 0.70190E-04 0.13256E+25 0.95423E-01 0.84214E+25 0.60619E+00
         0.00000E+00
 15  135.27    7.64 0.61654E+00  408.520 0.76096E+25 0.54790E+00  402.220  0.0000
         0.76096E+21 0.54790E-04 0.76096E+21 0.54790E-04 0.76096E+21 0.54790E-04
 0.76096E+21 0.54790E-04 0.10345E+25 0.74487E-01 0.65720E+25 0.47319E+00
         0.00000E+00
 16  142.91    7.41 0.48132E+00  395.527 0.59412E+25 0.42766E+00  389.768  0.0000
         0.59412E+21 0.42766E-04 0.59412E+21 0.42766E-04 0.59412E+21 0.42766E-04
 0.59412E+21 0.42766E-04 0.80771E+24 0.58141E-01 0.51312E+25 0.36935E+00
         0.00000E+00
 17  150.32    7.20 0.37576E+00  383.891 0.46370E+25 0.33379E+00  378.838  0.0000
         0.46370E+21 0.33379E-04 0.46370E+21 0.33379E-04 0.46370E+21 0.33379E-04
 0.46370E+21 0.33379E-04 0.63040E+24 0.45379E-01 0.40048E+25 0.28828E+00
         0.00000E+00
 18  157.51    7.02 0.29335E+00  373.640 0.36201E+25 0.26054E+00  369.193  0.0000
         0.36201E+21 0.26054E-04 0.36201E+21 0.26054E-04 0.36201E+21 0.26054E-04
 0.36201E+21 0.26054E-04 0.49216E+24 0.35420E-01 0.31265E+25 0.22501E+00
         0.00000E+00
 19  164.53    6.86 0.22901E+00  364.706 0.28261E+25 0.20339E+00  360.900  0.0000
         0.28261E+21 0.20339E-04 0.28261E+21 0.20339E-04 0.28261E+21 0.20339E-04
 0.28261E+21 0.20339E-04 0.38421E+24 0.27651E-01 0.24408E+25 0.17566E+00
         0.00000E+00
 20  171.39    6.73 0.17878E+00  357.083 0.22059E+25 0.15878E+00  353.856  0.0000
         0.22059E+21 0.15878E-04 0.22059E+21 0.15878E-04 0.22059E+21 0.15878E-04
 0.22059E+21 0.15878E-04 0.29990E+24 0.21586E-01 0.19052E+25 0.13713E+00
         0.00000E+00
 21  178.12    6.61 0.13957E+00  350.630 0.17220E+25 0.12395E+00  347.921  0.0000
         0.17220E+21 0.12395E-04 0.17220E+21 0.12395E-04 0.17220E+21 0.12395E-04
 0.17220E+21 0.12395E-04 0.23411E+24 0.16851E-01 0.14872E+25 0.10705E+00
         0.00000E+00
 22  184.73    6.52 0.10896E+00  345.254 0.13444E+25 0.96772E-01  343.026  0.0000
         0.13444E+21 0.96772E-05 0.13444E+21 0.96772E-05 0.13444E+21 0.96772E-05
 0.13444E+21 0.96772E-05 0.18277E+24 0.13156E-01 0.11611E+25 0.83577E-01
         0.00000E+00
 23  191.25    6.44 0.85065E-01  340.819 0.10496E+25 0.75562E-01  338.983  0.0000
         0.10496E+21 0.75562E-05 0.10496E+21 0.75562E-05 0.10496E+21 0.75562E-05
 0.10496E+21 0.75562E-05 0.14270E+24 0.10273E-01 0.90652E+24 0.65259E-01
         0.00000E+00
 24  197.70    6.38 0.66409E-01  337.190 0.81948E+24 0.58995E-01  335.712  0.0000
         0.81948E+20 0.58995E-05 0.81948E+20 0.58995E-05 0.81948E+20 0.58995E-05
 0.81948E+20 0.58995E-05 0.11141E+24 0.80204E-02 0.70774E+24 0.50951E-01
         0.00000E+00
 25  204.08    6.33 0.51844E-01  334.257 0.63983E+24 0.46061E-01  333.057  0.0000
         0.63983E+20 0.46061E-05 0.63983E+20 0.46061E-05 0.63983E+20 0.46061E-05
 0.63983E+20 0.46061E-05 0.86985E+23 0.62620E-02 0.55259E+24 0.39781E-01
         0.00000E+00
 26  210.41    6.29 0.40474E-01  331.889 0.49951E+24 0.35965E-01  330.938  0.0000
         0.49951E+20 0.35965E-05 0.49951E+20 0.35965E-05 0.49951E+20 0.35965E-05
 0.49951E+20 0.35965E-05 0.67908E+23 0.48895E-02 0.43140E+24 0.31061E-01
         0.00000E+00
 27  216.70    6.26 0.31597E-01  330.003 0.39007E+24 0.28087E-01  329.242  0.0000
         0.39007E+20 0.28087E-05 0.39007E+20 0.28087E-05 0.39007E+20 0.28087E-05
 0.39007E+20 0.28087E-05 0.53031E+23 0.38184E-02 0.33689E+24 0.24257E-01
         0.00000E+00
 28  222.96    6.23 0.24667E-01  328.497 0.30464E+24 0.21934E-01  327.899  0.0000
         0.30464E+20 0.21934E-05 0.30464E+20 0.21934E-05 0.30464E+20 0.21934E-05
 0.30464E+20 0.21934E-05 0.41416E+23 0.29819E-02 0.26311E+24 0.18943E-01
         0.00000E+00
 29  229.20    6.21 0.19257E-01  327.308 0.23785E+24 0.17129E-01  326.833  0.0000
         0.23785E+20 0.17129E-05 0.23785E+20 0.17129E-05 0.23785E+20 0.17129E-05
 0.23785E+20 0.17129E-05 0.32335E+23 0.23287E-02 0.20542E+24 0.14794E-01
         0.00000E+00
 30  235.41    6.20 0.15034E-01  326.365 0.18576E+24 0.13377E-01  325.994  0.0000
         0.18576E+20 0.13377E-05 0.18576E+20 0.13377E-05 0.18576E+20 0.13377E-05
 0.18576E+20 0.13377E-05 0.25254E+23 0.18186E-02 0.16043E+24 0.11553E-01
         0.00000E+00
 31  241.61    6.18 0.11737E-01  325.625 0.14507E+24 0.10447E-01  325.332  0.0000
         0.14507E+20 0.10447E-05 0.14507E+20 0.10447E-05 0.14507E+20 0.10447E-05
 0.14507E+20 0.10447E-05 0.19722E+23 0.14203E-02 0.12529E+24 0.90225E-02
         0.00000E+00
 32  247.79    6.17 0.91626E-02  325.041 0.11329E+24 0.81595E-02  324.813  0.0000
         0.11329E+20 0.81595E-06 0.11329E+20 0.81595E-06 0.11329E+20 0.81595E-06
 0.11329E+20 0.81595E-06 0.15402E+23 0.11093E-02 0.97846E+23 0.70470E-02
         0.00000E+00
 33  253.97    6.17 0.71530E-02  324.584 0.88488E+23 0.63726E-02  324.405  0.0000
         0.88488E+19 0.63726E-06 0.88488E+19 0.63726E-06 0.88488E+19 0.63726E-06
 0.88488E+19 0.63726E-06 0.12030E+23 0.86636E-03 0.76423E+23 0.55037E-02
         0.00000E+00
 34  260.13    6.16 0.55842E-02  324.225 0.69116E+23 0.49775E-02  324.086  0.0000
         0.69116E+19 0.49775E-06 0.69116E+19 0.49775E-06 0.69116E+19 0.49775E-06
 0.69116E+19 0.49775E-06 0.93963E+22 0.67670E-03 0.59692E+23 0.42989E-02
         0.00000E+00
 35  266.29    6.16 0.43595E-02  323.944 0.53990E+23 0.38878E-02  323.836  0.0000
         0.53990E+19 0.38878E-06 0.53990E+19 0.38878E-06 0.53990E+19 0.38878E-06
 0.53990E+19 0.38878E-06 0.73400E+22 0.52854E-03 0.46629E+23 0.33577E-02
         0.00000E+00
 36  272.45    6.15 0.34034E-02  323.725 0.42169E+23 0.30371E-02  323.641  0.0000
         0.42169E+19 0.30371E-06 0.42169E+19 0.30371E-06 0.42169E+19 0.30371E-06
 0.42169E+19 0.30371E-06 0.57328E+22 0.41289E-03 0.36419E+23 0.26230E-02
         0.00000E+00
 37  278.60    6.15 0.26570E-02  323.553 0.32944E+23 0.23726E-02  323.488  0.0000
         0.32944E+19 0.23726E-06 0.32944E+19 0.23726E-06 0.32944E+19 0.23726E-06
 0.32944E+19 0.23726E-06 0.44787E+22 0.32256E-03 0.28452E+23 0.20491E-02
         0.00000E+00
 38  284.75    6.15 0.20742E-02  323.419 0.25739E+23 0.18534E-02  323.368  0.0000
         0.25739E+19 0.18534E-06 0.25739E+19 0.18534E-06 0.25739E+19 0.18534E-06
 0.25739E+19 0.18534E-06 0.34992E+22 0.25197E-03 0.22229E+23 0.16007E-02
         0.00000E+00
 39  290.90    6.14 0.16193E-02  323.314 0.20107E+23 0.14480E-02  323.275  0.0000
         0.20107E+19 0.14480E-06 0.20107E+19 0.14480E-06 0.20107E+19 0.14480E-06
 0.20107E+19 0.14480E-06 0.27336E+22 0.19685E-03 0.17366E+23 0.12505E-02
         0.00000E+00
 40  297.04    6.14 0.12642E-02  323.232 0.15710E+23 0.11312E-02  323.201  0.0000
         0.15710E+19 0.11312E-06 0.15710E+19 0.11312E-06 0.15710E+19 0.11312E-06
 0.15710E+19 0.11312E-06 0.21357E+22 0.15379E-03 0.13568E+23 0.97697E-03
         0.00000E+00
   40   3 0.10000E-01            : Nlayers, model & error limit, path  1
   1   40  323.201  0.10009E+01  :     layer or path, emission temp, scale
   2   39  323.275  0.99938E+00  :     layer or path, emission temp, scale
   3   38  323.368  0.10003E+01  :     layer or path, emission temp, scale
   4   37  323.488  0.10000E+01  :     layer or path, emission temp, scale
   5   36  323.641  0.99951E+00  :     layer or path, emission temp, scale
   6   35  323.836  0.99996E+00  :     layer or path, emission temp, scale
   7   34  324.086  0.10006E+01  :     layer or path, emission temp, scale
   8   33  324.405  0.99956E+00  :     layer or path, emission temp, scale
   9   32  324.813  0.10009E+01  :     layer or path, emission temp, scale
  10   31  325.332  0.99921E+00  :     layer or path, emission temp, scale
  11   30  325.994  0.10009E+01  :     layer or path, emission temp, scale
  12   29  326.833  0.99976E+00  :     layer or path, emission temp, scale
  13   28  327.899  0.10000E+01  :     layer or path, emission temp, scale
  14   27  329.242  0.99978E+00  :     layer or path, emission temp, scale
  15   26  330.938  0.99965E+00  :     layer or path, emission temp, scale
  16   25  333.057  0.10006E+01  :     layer or path, emission temp, scale
  17   24  335.712  0.10001E+01  :     layer or path, emission temp, scale
  18   23  338.983  0.10002E+01  :     layer or path, emission temp, scale
  19   22  343.026  0.99916E+00  :     layer or path, emission temp, scale
  20   21  347.921  0.10005E+01  :     layer or path, emission temp, scale
  21   20  353.856  0.10001E+01  :     layer or path, emission temp, scale
  22   19  360.900  0.99986E+00  :     layer or path, emission temp, scale
  23   18  369.193  0.99975E+00  :     layer or path, emission temp, scale
  24   17  378.838  0.10006E+01  :     layer or path, emission temp, scale
  25   16  389.768  0.10000E+01  :     layer or path, emission temp, scale
  26   15  402.220  0.10001E+01  :     layer or path, emission temp, scale
  27   14  415.670  0.99919E+00  :     layer or path, emission temp, scale
  28   13  430.705  0.10004E+01  :     layer or path, emission temp, scale
  29   12  446.086  0.99951E+00  :     layer or path, emission temp, scale
  30   11  462.908  0.10006E+01  :     layer or path, emission temp, scale
  31   10  479.063  0.99963E+00  :     layer or path, emission temp, scale
  32    9  496.209  0.10002E+01  :     layer or path, emission temp, scale
  33    8  511.479  0.99998E+00  :     layer or path, emission temp, scale
  34    7  526.928  0.99996E+00  :     layer or path, emission temp, scale
  35    6  539.445  0.10002E+01  :     layer or path, emission temp, scale
  36    5  551.054  0.10001E+01  :     layer or path, emission temp, scale
  37    4  559.424  0.99983E+00  :     layer or path, emission temp, scale
  38    3  565.935  0.99975E+00  :     layer or path, emission temp, scale
  39    2  570.113  0.10001E+01  :     layer or path, emission temp, scale
  40    1  572.357  0.99999E+00  :     layer or path, emission temp, scale
    1                                    : number of filter profile points
  0.00000E+00     0.000                  : filter profile point   1
 test_point_TP.out                                                                                   
   1                                     :number of calculations
    2   2   2   0                        :type and # of parameters for calc  1
           1
           1
   0.00000000    
   0.00000000    
