           1
  87   0.00  40  6
   1    0
   2    0
   5    0
   6    0
  40    0
  39    0
  height (km)  press (atm)   temp (K)    VMR gas  1   VMR gas  2   VMR gas  3   VMR gas  4   VMR gas  5   VMR gas  6   VMR gas
         0.000  0.19739E+02     573.5570  0.10000E-03  0.10000E-03  0.10000E-03  0.10000E-03  0.13595E+00  0.86365E+00
        11.105  0.15312E+02     571.0000  0.10000E-03  0.10000E-03  0.10000E-03  0.10000E-03  0.13595E+00  0.86365E+00
        22.169  0.11878E+02     569.0150  0.10000E-03  0.10000E-03  0.10000E-03  0.10000E-03  0.13595E+00  0.86365E+00
        33.147  0.92143E+01     561.7890  0.10000E-03  0.10000E-03  0.10000E-03  0.10000E-03  0.13595E+00  0.86365E+00
        44.001  0.71480E+01     555.9060  0.10000E-03  0.10000E-03  0.10000E-03  0.10000E-03  0.13595E+00  0.86365E+00
        54.678  0.55450E+01     543.2440  0.10000E-03  0.10000E-03  0.10000E-03  0.10000E-03  0.13595E+00  0.86365E+00
        65.131  0.43015E+01     532.5840  0.10000E-03  0.10000E-03  0.10000E-03  0.10000E-03  0.13595E+00  0.86365E+00
        75.322  0.33368E+01     515.9090  0.10000E-03  0.10000E-03  0.10000E-03  0.10000E-03  0.13595E+00  0.86365E+00
        85.214  0.25885E+01     501.5880  0.10000E-03  0.10000E-03  0.10000E-03  0.10000E-03  0.13595E+00  0.86365E+00
        94.791  0.20080E+01     483.2290  0.10000E-03  0.10000E-03  0.10000E-03  0.10000E-03  0.13595E+00  0.86365E+00
       104.036  0.15577E+01     467.2880  0.10000E-03  0.10000E-03  0.10000E-03  0.10000E-03  0.13595E+00  0.86365E+00
       112.955  0.12084E+01     449.4030  0.10000E-03  0.10000E-03  0.10000E-03  0.10000E-03  0.13595E+00  0.86365E+00
       121.550  0.93739E+00     433.7950  0.10000E-03  0.10000E-03  0.10000E-03  0.10000E-03  0.13595E+00  0.86365E+00
       129.840  0.72717E+00     417.9160  0.10000E-03  0.10000E-03  0.10000E-03  0.10000E-03  0.13595E+00  0.86365E+00
       137.843  0.56410E+00     404.0660  0.10000E-03  0.10000E-03  0.10000E-03  0.10000E-03  0.13595E+00  0.86365E+00
       145.586  0.43759E+00     391.0160  0.10000E-03  0.10000E-03  0.10000E-03  0.10000E-03  0.13595E+00  0.86365E+00
       153.092  0.33946E+00     379.7090  0.10000E-03  0.10000E-03  0.10000E-03  0.10000E-03  0.13595E+00  0.86365E+00
       160.393  0.26333E+00     369.6890  0.10000E-03  0.10000E-03  0.10000E-03  0.10000E-03  0.13595E+00  0.86365E+00
       167.514  0.20428E+00     361.1160  0.10000E-03  0.10000E-03  0.10000E-03  0.10000E-03  0.13595E+00  0.86365E+00
       174.482  0.15847E+00     353.8700  0.10000E-03  0.10000E-03  0.10000E-03  0.10000E-03  0.13595E+00  0.86365E+00
       181.321  0.12293E+00     347.7770  0.10000E-03  0.10000E-03  0.10000E-03  0.10000E-03  0.13595E+00  0.86365E+00
       188.054  0.95362E-01     342.7980  0.10000E-03  0.10000E-03  0.10000E-03  0.10000E-03  0.13595E+00  0.86365E+00
       194.699  0.73976E-01     338.6880  0.10000E-03  0.10000E-03  0.10000E-03  0.10000E-03  0.13595E+00  0.86365E+00
       201.273  0.57386E-01     335.4040  0.10000E-03  0.10000E-03  0.10000E-03  0.10000E-03  0.13595E+00  0.86365E+00
       207.791  0.44517E-01     332.7400  0.10000E-03  0.10000E-03  0.10000E-03  0.10000E-03  0.13595E+00  0.86365E+00
       214.263  0.34534E-01     330.6400  0.10000E-03  0.10000E-03  0.10000E-03  0.10000E-03  0.13595E+00  0.86365E+00
       220.699  0.26789E-01     328.9610  0.10000E-03  0.10000E-03  0.10000E-03  0.10000E-03  0.13595E+00  0.86365E+00
       227.108  0.20782E-01     327.6480  0.10000E-03  0.10000E-03  0.10000E-03  0.10000E-03  0.13595E+00  0.86365E+00
       233.494  0.16121E-01     326.6080  0.10000E-03  0.10000E-03  0.10000E-03  0.10000E-03  0.13595E+00  0.86365E+00
       239.863  0.12506E-01     325.7990  0.10000E-03  0.10000E-03  0.10000E-03  0.10000E-03  0.13595E+00  0.86365E+00
       246.220  0.97013E-02     325.1630  0.10000E-03  0.10000E-03  0.10000E-03  0.10000E-03  0.13595E+00  0.86365E+00
       252.566  0.75257E-02     324.6690  0.10000E-03  0.10000E-03  0.10000E-03  0.10000E-03  0.13595E+00  0.86365E+00
       258.905  0.58380E-02     324.2830  0.10000E-03  0.10000E-03  0.10000E-03  0.10000E-03  0.13595E+00  0.86365E+00
       265.238  0.45288E-02     323.9830  0.10000E-03  0.10000E-03  0.10000E-03  0.10000E-03  0.13595E+00  0.86365E+00
       271.568  0.35132E-02     323.7500  0.10000E-03  0.10000E-03  0.10000E-03  0.10000E-03  0.13595E+00  0.86365E+00
       277.894  0.27253E-02     323.5690  0.10000E-03  0.10000E-03  0.10000E-03  0.10000E-03  0.13595E+00  0.86365E+00
       284.218  0.21141E-02     323.4280  0.10000E-03  0.10000E-03  0.10000E-03  0.10000E-03  0.13595E+00  0.86365E+00
       290.541  0.16400E-02     323.3190  0.10000E-03  0.10000E-03  0.10000E-03  0.10000E-03  0.13595E+00  0.86365E+00
       296.863  0.12722E-02     323.2340  0.10000E-03  0.10000E-03  0.10000E-03  0.10000E-03  0.13595E+00  0.86365E+00
       303.184  0.98692E-03     323.1680  0.10000E-03  0.10000E-03  0.10000E-03  0.10000E-03  0.13595E+00  0.86365E+00
