           1
  87   0.00  40  6
   1    0
   2    0
   5    0
   6    0
  40    0
  39    0
  height (km)  press (atm)   temp (K)    VMR gas  1   VMR gas  2   VMR gas  3   VMR gas  4   VMR gas  5   VMR gas  6   VMR gas
         0.000  0.19739E+02    2294.2300  0.10000E-06  0.10000E-06  0.10000E-06  0.10000E-06  0.13600E+00  0.86400E+00
        44.628  0.15312E+02    2283.9980  0.10000E-06  0.10000E-06  0.10000E-06  0.10000E-06  0.13600E+00  0.86400E+00
        89.133  0.11878E+02    2276.0620  0.10000E-06  0.10000E-06  0.10000E-06  0.10000E-06  0.13600E+00  0.86400E+00
       133.330  0.92143E+01    2247.1570  0.10000E-06  0.10000E-06  0.10000E-06  0.10000E-06  0.13600E+00  0.86400E+00
       177.066  0.71480E+01    2223.6240  0.10000E-06  0.10000E-06  0.10000E-06  0.10000E-06  0.13600E+00  0.86400E+00
       220.128  0.55450E+01    2172.9761  0.10000E-06  0.10000E-06  0.10000E-06  0.10000E-06  0.13600E+00  0.86400E+00
       262.324  0.43015E+01    2130.3369  0.10000E-06  0.10000E-06  0.10000E-06  0.10000E-06  0.13600E+00  0.86400E+00
       303.494  0.33368E+01    2063.6379  0.10000E-06  0.10000E-06  0.10000E-06  0.10000E-06  0.13600E+00  0.86400E+00
       343.490  0.25885E+01    2006.3540  0.10000E-06  0.10000E-06  0.10000E-06  0.10000E-06  0.13600E+00  0.86400E+00
       382.243  0.20080E+01    1932.9180  0.10000E-06  0.10000E-06  0.10000E-06  0.10000E-06  0.13600E+00  0.86400E+00
       419.685  0.15577E+01    1869.1500  0.10000E-06  0.10000E-06  0.10000E-06  0.10000E-06  0.13600E+00  0.86400E+00
       455.829  0.12084E+01    1797.6110  0.10000E-06  0.10000E-06  0.10000E-06  0.10000E-06  0.13600E+00  0.86400E+00
       490.686  0.93739E+00    1735.1801  0.10000E-06  0.10000E-06  0.10000E-06  0.10000E-06  0.13600E+00  0.86400E+00
       524.332  0.72717E+00    1671.6639  0.10000E-06  0.10000E-06  0.10000E-06  0.10000E-06  0.13600E+00  0.86400E+00
       556.832  0.56410E+00    1616.2640  0.10000E-06  0.10000E-06  0.10000E-06  0.10000E-06  0.13600E+00  0.86400E+00
       588.295  0.43759E+00    1564.0649  0.10000E-06  0.10000E-06  0.10000E-06  0.10000E-06  0.13600E+00  0.86400E+00
       618.820  0.33946E+00    1518.8361  0.10000E-06  0.10000E-06  0.10000E-06  0.10000E-06  0.13600E+00  0.86400E+00
       648.524  0.26333E+00    1478.7550  0.10000E-06  0.10000E-06  0.10000E-06  0.10000E-06  0.13600E+00  0.86400E+00
       677.514  0.20428E+00    1444.4650  0.10000E-06  0.10000E-06  0.10000E-06  0.10000E-06  0.13600E+00  0.86400E+00
       705.899  0.15847E+00    1415.4810  0.10000E-06  0.10000E-06  0.10000E-06  0.10000E-06  0.13600E+00  0.86400E+00
       733.774  0.12293E+00    1391.1071  0.10000E-06  0.10000E-06  0.10000E-06  0.10000E-06  0.13600E+00  0.86400E+00
       761.230  0.95362E-01    1371.1899  0.10000E-06  0.10000E-06  0.10000E-06  0.10000E-06  0.13600E+00  0.86400E+00
       788.344  0.73976E-01    1354.7520  0.10000E-06  0.10000E-06  0.10000E-06  0.10000E-06  0.13600E+00  0.86400E+00
       815.184  0.57386E-01    1341.6160  0.10000E-06  0.10000E-06  0.10000E-06  0.10000E-06  0.13600E+00  0.86400E+00
       841.806  0.44517E-01    1330.9611  0.10000E-06  0.10000E-06  0.10000E-06  0.10000E-06  0.13600E+00  0.86400E+00
       868.257  0.34534E-01    1322.5620  0.10000E-06  0.10000E-06  0.10000E-06  0.10000E-06  0.13600E+00  0.86400E+00
       894.576  0.26789E-01    1315.8440  0.10000E-06  0.10000E-06  0.10000E-06  0.10000E-06  0.13600E+00  0.86400E+00
       920.793  0.20782E-01    1310.5900  0.10000E-06  0.10000E-06  0.10000E-06  0.10000E-06  0.13600E+00  0.86400E+00
       946.935  0.16121E-01    1306.4330  0.10000E-06  0.10000E-06  0.10000E-06  0.10000E-06  0.13600E+00  0.86400E+00
       973.021  0.12506E-01    1303.1949  0.10000E-06  0.10000E-06  0.10000E-06  0.10000E-06  0.13600E+00  0.86400E+00
       999.068  0.97013E-02    1300.6520  0.10000E-06  0.10000E-06  0.10000E-06  0.10000E-06  0.13600E+00  0.86400E+00
      1025.087  0.75257E-02    1298.6750  0.10000E-06  0.10000E-06  0.10000E-06  0.10000E-06  0.13600E+00  0.86400E+00
      1051.089  0.58380E-02    1297.1310  0.10000E-06  0.10000E-06  0.10000E-06  0.10000E-06  0.13600E+00  0.86400E+00
      1077.082  0.45288E-02    1295.9320  0.10000E-06  0.10000E-06  0.10000E-06  0.10000E-06  0.13600E+00  0.86400E+00
      1103.071  0.35132E-02    1294.9990  0.10000E-06  0.10000E-06  0.10000E-06  0.10000E-06  0.13600E+00  0.86400E+00
      1129.062  0.27253E-02    1294.2740  0.10000E-06  0.10000E-06  0.10000E-06  0.10000E-06  0.13600E+00  0.86400E+00
      1155.057  0.21141E-02    1293.7111  0.10000E-06  0.10000E-06  0.10000E-06  0.10000E-06  0.13600E+00  0.86400E+00
      1181.061  0.16400E-02    1293.2750  0.10000E-06  0.10000E-06  0.10000E-06  0.10000E-06  0.13600E+00  0.86400E+00
      1207.074  0.12722E-02    1292.9360  0.10000E-06  0.10000E-06  0.10000E-06  0.10000E-06  0.13600E+00  0.86400E+00
      1233.100  0.98692E-03    1292.6730  0.10000E-06  0.10000E-06  0.10000E-06  0.10000E-06  0.13600E+00  0.86400E+00
