1
1
  87  0.0   40    6
   1    0
   2    0
   5    0
   6    0
  40    0
  39    0
   height (km)    press (atm)       temp (K)    VMR gas  0    VMR gas  1    VMR gas  2    VMR gas  3    VMR gas  4    VMR gas  5
         0.000    1.97385E+01       2294.230   1.00000E-07   1.00000E-07   1.00000E-07   1.00000E-07   1.36000E-01   8.64000E-01
         0.256    1.53120E+01       2283.998   1.00000E-07   1.00000E-07   1.00000E-07   1.00000E-07   1.36000E-01   8.64000E-01
         0.513    1.18781E+01       2276.062   1.00000E-07   1.00000E-07   1.00000E-07   1.00000E-07   1.36000E-01   8.64000E-01
         0.769    9.21435E+00       2247.157   1.00000E-07   1.00000E-07   1.00000E-07   1.00000E-07   1.36000E-01   8.64000E-01
         1.026    7.14796E+00       2223.624   1.00000E-07   1.00000E-07   1.00000E-07   1.00000E-07   1.36000E-01   8.64000E-01
         1.282    5.54497E+00       2172.976   1.00000E-07   1.00000E-07   1.00000E-07   1.00000E-07   1.36000E-01   8.64000E-01
         1.538    4.30147E+00       2130.337   1.00000E-07   1.00000E-07   1.00000E-07   1.00000E-07   1.36000E-01   8.64000E-01
         1.795    3.33683E+00       2063.638   1.00000E-07   1.00000E-07   1.00000E-07   1.00000E-07   1.36000E-01   8.64000E-01
         2.051    2.58852E+00       2006.354   1.00000E-07   1.00000E-07   1.00000E-07   1.00000E-07   1.36000E-01   8.64000E-01
         2.308    2.00802E+00       1932.918   1.00000E-07   1.00000E-07   1.00000E-07   1.00000E-07   1.36000E-01   8.64000E-01
         2.564    1.55770E+00       1869.150   1.00000E-07   1.00000E-07   1.00000E-07   1.00000E-07   1.36000E-01   8.64000E-01
         2.821    1.20838E+00       1797.611   1.00000E-07   1.00000E-07   1.00000E-07   1.00000E-07   1.36000E-01   8.64000E-01
         3.077    9.37388E-01       1735.180   1.00000E-07   1.00000E-07   1.00000E-07   1.00000E-07   1.36000E-01   8.64000E-01
         3.333    7.27171E-01       1671.664   1.00000E-07   1.00000E-07   1.00000E-07   1.00000E-07   1.36000E-01   8.64000E-01
         3.590    5.64097E-01       1616.264   1.00000E-07   1.00000E-07   1.00000E-07   1.00000E-07   1.36000E-01   8.64000E-01
         3.846    4.37594E-01       1564.065   1.00000E-07   1.00000E-07   1.00000E-07   1.00000E-07   1.36000E-01   8.64000E-01
         4.103    3.39460E-01       1518.836   1.00000E-07   1.00000E-07   1.00000E-07   1.00000E-07   1.36000E-01   8.64000E-01
         4.359    2.63333E-01       1478.755   1.00000E-07   1.00000E-07   1.00000E-07   1.00000E-07   1.36000E-01   8.64000E-01
         4.615    2.04278E-01       1444.465   1.00000E-07   1.00000E-07   1.00000E-07   1.00000E-07   1.36000E-01   8.64000E-01
         4.872    1.58467E-01       1415.481   1.00000E-07   1.00000E-07   1.00000E-07   1.00000E-07   1.36000E-01   8.64000E-01
         5.128    1.22930E-01       1391.107   1.00000E-07   1.00000E-07   1.00000E-07   1.00000E-07   1.36000E-01   8.64000E-01
         5.385    9.53617E-02       1371.190   1.00000E-07   1.00000E-07   1.00000E-07   1.00000E-07   1.36000E-01   8.64000E-01
         5.641    7.39761E-02       1354.752   1.00000E-07   1.00000E-07   1.00000E-07   1.00000E-07   1.36000E-01   8.64000E-01
         5.897    5.73863E-02       1341.616   1.00000E-07   1.00000E-07   1.00000E-07   1.00000E-07   1.36000E-01   8.64000E-01
         6.154    4.45170E-02       1330.961   1.00000E-07   1.00000E-07   1.00000E-07   1.00000E-07   1.36000E-01   8.64000E-01
         6.410    3.45337E-02       1322.562   1.00000E-07   1.00000E-07   1.00000E-07   1.00000E-07   1.36000E-01   8.64000E-01
         6.667    2.67892E-02       1315.844   1.00000E-07   1.00000E-07   1.00000E-07   1.00000E-07   1.36000E-01   8.64000E-01
         6.923    2.07815E-02       1310.590   1.00000E-07   1.00000E-07   1.00000E-07   1.00000E-07   1.36000E-01   8.64000E-01
         7.179    1.61211E-02       1306.433   1.00000E-07   1.00000E-07   1.00000E-07   1.00000E-07   1.36000E-01   8.64000E-01
         7.436    1.25058E-02       1303.195   1.00000E-07   1.00000E-07   1.00000E-07   1.00000E-07   1.36000E-01   8.64000E-01
         7.692    9.70127E-03       1300.652   1.00000E-07   1.00000E-07   1.00000E-07   1.00000E-07   1.36000E-01   8.64000E-01
         7.949    7.52568E-03       1298.675   1.00000E-07   1.00000E-07   1.00000E-07   1.00000E-07   1.36000E-01   8.64000E-01
         8.205    5.83799E-03       1297.131   1.00000E-07   1.00000E-07   1.00000E-07   1.00000E-07   1.36000E-01   8.64000E-01
         8.462    4.52877E-03       1295.932   1.00000E-07   1.00000E-07   1.00000E-07   1.00000E-07   1.36000E-01   8.64000E-01
         8.718    3.51316E-03       1294.999   1.00000E-07   1.00000E-07   1.00000E-07   1.00000E-07   1.36000E-01   8.64000E-01
         8.974    2.72530E-03       1294.274   1.00000E-07   1.00000E-07   1.00000E-07   1.00000E-07   1.36000E-01   8.64000E-01
         9.231    2.11413E-03       1293.711   1.00000E-07   1.00000E-07   1.00000E-07   1.00000E-07   1.36000E-01   8.64000E-01
         9.487    1.64002E-03       1293.275   1.00000E-07   1.00000E-07   1.00000E-07   1.00000E-07   1.36000E-01   8.64000E-01
         9.744    1.27223E-03       1292.936   1.00000E-07   1.00000E-07   1.00000E-07   1.00000E-07   1.36000E-01   8.64000E-01
        10.000    9.86923E-04       1292.673   1.00000E-07   1.00000E-07   1.00000E-07   1.00000E-07   1.36000E-01   8.64000E-01