           1
  87   0.00  20  6
   1    0
   2    0
   5    0
   6    0
  40    0
  39    0
  height (km)  press (atm)   temp (K)    VMR gas  1   VMR gas  2   VMR gas  3   VMR gas  4   VMR gas  5   VMR gas  6   VMR gas
         0.000  0.19739E+02    2294.2300  0.10000E-03  0.10000E-03  0.10000E-03  0.10000E-03  0.13595E+00  0.86365E+00
        91.110  0.11720E+02    2275.6970  0.10000E-03  0.10000E-03  0.10000E-03  0.10000E-03  0.13595E+00  0.86365E+00
       180.987  0.69594E+01    2221.4771  0.10000E-03  0.10000E-03  0.10000E-03  0.10000E-03  0.13595E+00  0.86365E+00
       268.049  0.41324E+01    2124.5410  0.10000E-03  0.10000E-03  0.10000E-03  0.10000E-03  0.13595E+00  0.86365E+00
       350.784  0.24538E+01    1996.0389  0.10000E-03  0.10000E-03  0.10000E-03  0.10000E-03  0.13595E+00  0.86365E+00
       428.271  0.14570E+01    1854.8910  0.10000E-03  0.10000E-03  0.10000E-03  0.10000E-03  0.13595E+00  0.86365E+00
       500.318  0.86515E+00    1718.5389  0.10000E-03  0.10000E-03  0.10000E-03  0.10000E-03  0.13595E+00  0.86365E+00
       567.335  0.51372E+00    1599.1490  0.10000E-03  0.10000E-03  0.10000E-03  0.10000E-03  0.13595E+00  0.86365E+00
       630.106  0.30504E+00    1502.9709  0.10000E-03  0.10000E-03  0.10000E-03  0.10000E-03  0.13595E+00  0.86365E+00
       689.573  0.18113E+00    1431.0220  0.10000E-03  0.10000E-03  0.10000E-03  0.10000E-03  0.13595E+00  0.86365E+00
       746.648  0.10755E+00    1380.5590  0.10000E-03  0.10000E-03  0.10000E-03  0.10000E-03  0.13595E+00  0.86365E+00
       802.101  0.63862E-01    1346.9780  0.10000E-03  0.10000E-03  0.10000E-03  0.10000E-03  0.13595E+00  0.86365E+00
       856.514  0.37920E-01    1325.4990  0.10000E-03  0.10000E-03  0.10000E-03  0.10000E-03  0.13595E+00  0.86365E+00
       910.296  0.22517E-01    1312.1379  0.10000E-03  0.10000E-03  0.10000E-03  0.10000E-03  0.13595E+00  0.86365E+00
       963.715  0.13370E-01    1303.9790  0.10000E-03  0.10000E-03  0.10000E-03  0.10000E-03  0.13595E+00  0.86365E+00
      1016.943  0.79390E-02    1299.0530  0.10000E-03  0.10000E-03  0.10000E-03  0.10000E-03  0.13595E+00  0.86365E+00
      1070.085  0.47140E-02    1296.1030  0.10000E-03  0.10000E-03  0.10000E-03  0.10000E-03  0.13595E+00  0.86365E+00
      1123.206  0.27991E-02    1294.3420  0.10000E-03  0.10000E-03  0.10000E-03  0.10000E-03  0.13595E+00  0.86365E+00
      1176.343  0.16621E-02    1293.2950  0.10000E-03  0.10000E-03  0.10000E-03  0.10000E-03  0.13595E+00  0.86365E+00
      1229.522  0.98692E-03    1292.6730  0.10000E-03  0.10000E-03  0.10000E-03  0.10000E-03  0.13595E+00  0.86365E+00
