1
1
  87  0.0   20    6
   1    0
   2    0
   5    0
   6    0
  40    0
  39    0
   height (km)    press (atm)       temp (K)    VMR gas  0    VMR gas  1    VMR gas  2    VMR gas  3    VMR gas  4    VMR gas  5
         0.000    1.97385E+01       3053.668   1.00000E-04   1.00000E-08   1.00000E-04   1.00000E-04   1.35959E-01   8.63741E-01
       103.738    1.17204E+01       2866.361   1.00000E-04   1.00000E-08   1.00000E-04   1.00000E-04   1.35959E-01   8.63741E-01
       206.341    6.95943E+00       2488.851   1.00000E-04   1.00000E-08   1.00000E-04   1.00000E-04   1.35959E-01   8.63741E-01
       305.673    4.13241E+00       2113.065   1.00000E-04   1.00000E-08   1.00000E-04   1.00000E-04   1.35959E-01   8.63741E-01
       400.038    2.45377E+00       1901.247   1.00000E-04   1.00000E-08   1.00000E-04   1.00000E-04   1.35959E-01   8.63741E-01
       488.380    1.45701E+00       1762.093   1.00000E-04   1.00000E-08   1.00000E-04   1.00000E-04   1.35959E-01   8.63741E-01
       570.378    8.65154E-01       1659.034   1.00000E-04   1.00000E-08   1.00000E-04   1.00000E-04   1.35959E-01   8.63741E-01
       646.857    5.13716E-01       1598.330   1.00000E-04   1.00000E-08   1.00000E-04   1.00000E-04   1.35959E-01   8.63741E-01
       718.496    3.05038E-01       1555.375   1.00000E-04   1.00000E-08   1.00000E-04   1.00000E-04   1.35959E-01   8.63741E-01
       785.988    1.81127E-01       1515.995   1.00000E-04   1.00000E-08   1.00000E-04   1.00000E-04   1.35959E-01   8.63741E-01
       851.243    1.07551E-01       1465.717   1.00000E-04   1.00000E-08   1.00000E-04   1.00000E-04   1.35959E-01   8.63741E-01
       914.520    6.38621E-02       1429.984   1.00000E-04   1.00000E-08   1.00000E-04   1.00000E-04   1.35959E-01   8.63741E-01
       976.565    3.79204E-02       1408.264   1.00000E-04   1.00000E-08   1.00000E-04   1.00000E-04   1.35959E-01   8.63741E-01
      1037.987    2.25166E-02       1379.877   1.00000E-04   1.00000E-08   1.00000E-04   1.00000E-04   1.35959E-01   8.63741E-01
      1099.328    1.33701E-02       1341.202   1.00000E-04   1.00000E-08   1.00000E-04   1.00000E-04   1.35959E-01   8.63741E-01
      1158.957    7.93896E-03       1303.200   1.00000E-04   1.00000E-08   1.00000E-04   1.00000E-04   1.35959E-01   8.63741E-01
      1221.027    4.71404E-03       1261.775   1.00000E-04   1.00000E-08   1.00000E-04   1.00000E-04   1.35959E-01   8.63741E-01
      1280.661    2.79913E-03       1222.785   1.00000E-04   1.00000E-08   1.00000E-04   1.00000E-04   1.35959E-01   8.63741E-01
      1341.043    1.66209E-03       1206.273   1.00000E-04   1.00000E-08   1.00000E-04   1.00000E-04   1.35959E-01   8.63741E-01
      1404.762    9.86923E-04       1239.167   1.00000E-04   1.00000E-08   1.00000E-04   1.00000E-04   1.35959E-01   8.63741E-01